time,TP9,AF7,AF8,TP10,AUX
1644477864247.25,-84.9609375,-42.96875,129.8828125,-61.03515625,-157.2265625
1644477864251.1562,-48.828125,-41.015625,274.90234375,-46.875,42.48046875
1644477864255.0625,-42.48046875,-34.1796875,277.83203125,-44.43359375,42.96875
1644477864258.9688,-68.359375,-32.2265625,109.86328125,-59.08203125,-72.265625
1644477864262.875,-89.84375,-38.57421875,-171.875,-64.94140625,-98.14453125
1644477864266.7812,-61.5234375,-37.59765625,-282.71484375,-45.8984375,81.0546875
1644477864270.6875,-24.4140625,-33.69140625,32.71484375,-15.625,129.39453125
1644477864274.5938,-26.3671875,-36.62109375,291.9921875,-7.32421875,-17.08984375
1644477864278.5,-41.50390625,-32.71484375,121.58203125,-29.78515625,-78.125
1644477864282.4062,-58.59375,-35.64453125,-598.14453125,-41.9921875,263.18359375
1644477864286.3125,-50.29296875,-31.73828125,-577.63671875,-31.25,307.12890625
1644477864290.2188,-12.20703125,-25.390625,355.95703125,-22.4609375,-50.78125
1644477864294.125,0.9765625,-21.97265625,425.78125,-13.18359375,-83.0078125
1644477864298.0312,-17.578125,-18.06640625,12.6953125,-14.6484375,-66.40625
1644477864301.9375,-46.38671875,-20.01953125,-139.6484375,-39.0625,-172.36328125
1644477864305.8438,-49.8046875,-31.25,-23.4375,-46.38671875,-180.6640625
1644477864309.75,-21.97265625,-37.109375,245.60546875,-22.4609375,-39.0625
1644477864313.6562,-5.859375,-33.69140625,198.2421875,-7.8125,145.99609375
1644477864317.5625,-26.3671875,-33.69140625,-63.96484375,-22.4609375,136.23046875
1644477864321.4688,-60.05859375,-30.2734375,-125,-46.38671875,-72.265625
1644477864325.375,-56.15234375,-30.2734375,-225.09765625,-46.38671875,-37.59765625
1644477864329.2812,-22.4609375,-32.71484375,-352.5390625,-25.87890625,272.4609375
1644477864333.1875,-9.27734375,-26.85546875,216.30859375,-24.90234375,97.65625
1644477864337.0938,-15.13671875,-11.71875,330.56640625,-31.73828125,-117.67578125
1644477864341,-46.38671875,-11.71875,-282.2265625,-46.875,21.484375
1644477864344.9062,-59.5703125,-20.99609375,-351.5625,-55.17578125,22.94921875
1644477864348.8125,-18.06640625,-19.04296875,221.19140625,-26.85546875,-101.07421875
1644477864352.7188,10.25390625,-20.5078125,423.828125,-12.6953125,-82.03125
1644477864356.625,-4.8828125,-27.83203125,54.6875,-22.94921875,-4.39453125
1644477864360.5312,-34.1796875,-25.390625,-286.1328125,-31.25,53.7109375
1644477864364.4375,-52.24609375,-25.87890625,-377.44140625,-42.48046875,5.859375
1644477864368.3438,-23.92578125,-31.25,19.04296875,-28.3203125,-74.21875
1644477864372.25,3.41796875,-31.25,31.73828125,2.44140625,200.1953125
1644477864376.1562,-10.7421875,-29.78515625,-161.1328125,-5.859375,218.75
1644477864380.0625,-39.55078125,-32.71484375,46.38671875,-35.15625,-138.18359375
1644477864383.9688,-54.6875,-33.203125,-152.34375,-42.96875,-159.1796875
1644477864387.875,-24.90234375,-33.203125,-200.1953125,-19.53125,10.25390625
1644477864391.7812,8.7890625,-30.2734375,316.40625,1.953125,-30.76171875
1644477864395.6875,3.90625,-24.4140625,349.609375,-4.39453125,-102.05078125
1644477864399.5938,-35.15625,-32.2265625,-169.43359375,-25.390625,30.76171875
1644477864403.5,-52.24609375,-35.15625,-494.62890625,-30.2734375,65.91796875
1644477864407.4062,-30.2734375,-33.203125,-224.609375,-24.4140625,-41.50390625
1644477864411.3125,0.48828125,-28.3203125,235.83984375,-14.6484375,-31.73828125
1644477864415.2188,0.9765625,-24.90234375,170.41015625,-8.7890625,51.7578125
1644477864419.125,-32.2265625,-26.85546875,-451.171875,-29.296875,232.91015625
1644477864423.0312,-57.12890625,-29.78515625,-296.875,-50.78125,-25.87890625
1644477864426.9375,-31.25,-28.80859375,109.86328125,-28.80859375,-220.703125
1644477864430.8438,4.39453125,-27.83203125,210.9375,-6.34765625,-50.78125
1644477864434.75,-2.44140625,-27.34375,251.953125,-2.9296875,-44.921875
1644477864438.6562,-27.83203125,-27.83203125,115.72265625,-17.08984375,-172.8515625
1644477864442.5625,-53.22265625,-29.296875,-162.109375,-34.1796875,-210.44921875
1644477864446.4688,-35.64453125,-22.4609375,-229.4921875,-20.5078125,-101.5625
1644477864450.375,0,-23.92578125,187.01171875,-0.48828125,-60.546875
1644477864454.2812,0.9765625,-34.1796875,214.84375,-0.9765625,13.671875
1644477864458.1875,-23.4375,-36.62109375,-50.78125,-13.18359375,34.1796875
1644477864462.0938,-51.7578125,-34.66796875,-594.7265625,-31.25,206.54296875
1644477864466,-38.57421875,-28.80859375,-758.7890625,-24.4140625,360.83984375
1644477864469.9062,-5.37109375,-27.83203125,235.83984375,-4.39453125,9.27734375
1644477864473.8125,5.37109375,-30.2734375,489.74609375,2.44140625,-89.35546875
1644477864477.7188,-6.8359375,-27.34375,76.171875,3.90625,-10.25390625
1644477864481.625,-32.2265625,-27.34375,-43.9453125,-0.48828125,-82.03125
1644477864485.5312,-54.6875,-31.25,-38.57421875,-25.390625,-133.30078125
1644477864489.4375,-31.73828125,-27.34375,142.578125,-18.06640625,-54.6875
1644477864493.3438,-11.71875,-23.92578125,220.21484375,-1.953125,74.70703125
1644477864497.25,-39.0625,-18.5546875,121.09375,-22.94921875,35.64453125
1644477864501.1562,-69.82421875,-13.671875,-212.40234375,-41.015625,-41.50390625
1644477864505.0625,-69.82421875,-20.99609375,-445.3125,-35.64453125,79.1015625
1644477864508.9688,-37.59765625,-25.87890625,-386.23046875,-16.11328125,380.859375
1644477864512.875,-15.625,-19.04296875,153.3203125,-2.44140625,174.31640625
1644477864516.7812,-25.390625,-19.53125,215.8203125,-14.6484375,-67.3828125
1644477864520.6875,-51.26953125,-22.94921875,-210.44921875,-41.9921875,17.08984375
1644477864524.5938,-56.640625,-25.390625,-285.64453125,-43.45703125,12.20703125
1644477864528.5,-24.4140625,-22.94921875,166.015625,-20.01953125,-107.421875
1644477864532.4062,3.41796875,-15.13671875,425.29296875,-1.953125,-66.89453125
1644477864536.3125,-16.6015625,-23.4375,142.578125,-14.6484375,36.1328125
1644477864540.2188,-58.10546875,-29.78515625,-103.515625,-35.64453125,-89.84375
1644477864544.125,-71.2890625,-23.92578125,-185.05859375,-39.55078125,-170.41015625
1644477864548.0312,-37.59765625,-21.484375,-83.0078125,-26.85546875,-24.4140625
1644477864551.9375,-8.7890625,-28.3203125,-164.55078125,-8.30078125,237.3046875
1644477864555.8438,-20.5078125,-27.83203125,-200.1953125,-9.27734375,252.9296875
1644477864559.75,-51.7578125,-26.85546875,51.7578125,-36.62109375,-91.796875
1644477864563.6562,-64.94140625,-30.2734375,-138.18359375,-52.734375,-176.26953125
1644477864567.5625,-39.55078125,-33.69140625,-115.72265625,-42.48046875,-91.30859375
1644477864571.4688,-13.18359375,-37.109375,276.85546875,-27.83203125,-67.3828125
1644477864575.375,-15.13671875,-34.1796875,233.88671875,-25.87890625,-37.109375
1644477864579.2812,-33.203125,-31.73828125,-87.890625,-30.76171875,-22.94921875
1644477864583.1875,-50.29296875,-28.80859375,-491.2109375,-34.1796875,18.5546875
1644477864587.0938,-33.69140625,-29.78515625,-169.921875,-33.203125,-95.21484375
1644477864591,2.9296875,-33.203125,339.35546875,-19.04296875,-170.41015625
1644477864594.9062,6.34765625,-33.69140625,105.95703125,-8.30078125,60.05859375
1644477864598.8125,-19.53125,-31.25,-393.5546875,-14.16015625,258.30078125
1644477864602.7188,-50.78125,-33.203125,-326.66015625,-35.15625,-72.265625
1644477864606.625,-37.59765625,-37.59765625,2.44140625,-28.80859375,-242.67578125
1644477864610.5312,0,-37.109375,156.73828125,-6.34765625,-47.36328125
1644477864614.4375,-3.41796875,-35.15625,161.1328125,-5.859375,95.21484375
1644477864618.3438,-27.34375,-36.1328125,132.32421875,-23.92578125,-38.0859375
1644477864622.25,-51.7578125,-37.59765625,-134.765625,-39.55078125,-113.28125
1644477864626.1562,-47.36328125,-41.50390625,-232.421875,-41.9921875,-10.7421875
1644477864630.0625,-12.20703125,-37.109375,119.62890625,-22.4609375,34.66796875
1644477864633.9688,-2.9296875,-34.1796875,210.9375,-15.625,94.23828125
1644477864637.875,-29.296875,-39.0625,74.21875,-36.62109375,9.765625
1644477864641.7812,-56.15234375,-39.0625,-468.26171875,-40.0390625,202.1484375
1644477864645.6875,-48.33984375,-30.2734375,-717.7734375,-28.3203125,345.703125
1644477864649.5938,-13.18359375,-23.4375,93.75,-9.27734375,66.40625
1644477864653.5,2.9296875,-30.2734375,450.68359375,-3.41796875,5.37109375
1644477864657.4062,-12.6953125,-26.85546875,-99.609375,-13.671875,97.16796875
1644477864661.3125,-40.52734375,-14.16015625,-237.79296875,-32.2265625,-46.38671875
1644477864665.2188,-30.2734375,-8.30078125,-21.484375,-33.203125,-148.4375
1644477864669.125,-2.9296875,-16.6015625,147.94921875,-13.18359375,-15.625
1644477864673.0312,3.90625,-25.390625,251.46484375,-6.8359375,77.1484375
1644477864676.9375,-15.13671875,-25.87890625,206.0546875,-16.6015625,37.59765625
1644477864680.8438,-49.31640625,-28.80859375,-43.45703125,-34.1796875,-98.14453125
1644477864684.75,-48.828125,-31.73828125,-297.8515625,-39.0625,-84.47265625
1644477864688.6562,-16.11328125,-30.76171875,-220.703125,-18.5546875,124.51171875
1644477864692.5625,0,-28.80859375,71.2890625,-4.39453125,143.06640625
1644477864696.4688,-0.48828125,-20.5078125,93.26171875,-0.48828125,0.48828125
1644477864700.375,-20.01953125,-21.484375,-228.515625,-9.27734375,-34.1796875
1644477864704.2812,-41.015625,-31.25,-778.3203125,-22.94921875,242.67578125
1644477864708.1875,-20.01953125,-29.78515625,-230.95703125,-11.23046875,145.99609375
1644477864712.0938,6.8359375,-23.92578125,509.765625,13.671875,-104.00390625
1644477864716,-3.41796875,-27.34375,287.109375,6.34765625,-22.94921875
1644477864719.9062,-28.3203125,-30.2734375,8.30078125,-14.16015625,-58.59375
1644477864723.8125,-42.48046875,-25.390625,-106.4453125,-24.4140625,-171.875
1644477864727.7188,-14.6484375,-22.94921875,23.4375,-11.23046875,-135.7421875
1644477864731.625,18.06640625,-22.4609375,145.01953125,8.30078125,-38.0859375
1644477864735.5312,4.8828125,-22.4609375,58.59375,4.39453125,20.5078125
1644477864739.4375,-22.4609375,-19.04296875,-103.02734375,-10.25390625,45.8984375
1644477864743.3438,-47.36328125,-19.04296875,-165.52734375,-24.4140625,-66.40625
1644477864747.25,-26.85546875,-24.4140625,-370.1171875,-19.53125,96.19140625
1644477864751.1562,6.8359375,-19.04296875,-149.90234375,-14.16015625,221.19140625
1644477864755.0625,3.90625,-16.11328125,401.85546875,-12.6953125,-59.08203125
1644477864758.9688,-15.625,-20.01953125,164.0625,-16.11328125,-121.58203125
1644477864762.875,-43.45703125,-20.01953125,-427.24609375,-32.2265625,11.71875
1644477864766.7812,-30.2734375,-15.13671875,-146.97265625,-31.73828125,-81.0546875
1644477864770.6875,5.859375,-14.16015625,405.2734375,-16.11328125,-112.79296875
1644477864774.5938,-0.9765625,-23.4375,321.2890625,-15.13671875,-48.33984375
1644477864778.5,-29.296875,-31.73828125,-18.06640625,-27.83203125,-25.87890625
1644477864782.4062,-42.96875,-38.0859375,-299.31640625,-36.1328125,16.11328125
1644477864786.3125,-26.3671875,-32.2265625,-238.28125,-25.87890625,19.04296875
1644477864790.2188,-5.859375,-18.06640625,60.546875,-18.5546875,109.86328125
1644477864794.125,-6.34765625,-17.578125,-164.55078125,-17.08984375,306.640625
1644477864798.0312,-22.94921875,-10.25390625,-25.390625,-28.3203125,49.31640625
1644477864801.9375,-48.828125,-12.20703125,19.53125,-36.1328125,-232.421875
1644477864805.8438,-33.69140625,-16.6015625,-233.88671875,-8.7890625,-137.20703125
1644477864809.75,6.34765625,-15.13671875,18.5546875,15.625,10.25390625
1644477864813.6562,-1.46484375,-25.390625,381.8359375,9.27734375,-15.625
1644477864817.5625,-27.83203125,-27.34375,257.8125,-6.8359375,-86.42578125
1644477864821.4688,-42.48046875,-23.92578125,-291.50390625,-13.671875,-4.39453125
1644477864825.375,-35.15625,-20.01953125,-365.234375,-3.90625,-36.1328125
1644477864829.2812,4.39453125,-14.6484375,40.52734375,16.6015625,-69.3359375
1644477864833.1875,27.34375,-16.6015625,233.3984375,22.4609375,56.640625
1644477864837.0938,8.30078125,-15.13671875,-144.53125,14.6484375,219.7265625
1644477864841,-21.97265625,-11.71875,-443.359375,-3.41796875,153.80859375
1644477864844.9062,-27.83203125,-18.06640625,-113.76953125,-17.578125,-146.97265625
1644477864848.8125,7.32421875,-20.5078125,196.77734375,-2.9296875,-93.75
1644477864852.7188,36.1328125,-16.6015625,280.76171875,17.578125,46.38671875
1644477864856.625,11.71875,-18.5546875,233.88671875,2.44140625,-62.5
1644477864860.5312,-28.3203125,-24.90234375,35.15625,-19.04296875,-145.01953125
1644477864864.4375,-31.25,-24.4140625,-252.9296875,-17.578125,-136.71875
1644477864868.3438,-6.8359375,-21.97265625,-161.1328125,-4.39453125,-45.8984375
1644477864872.25,12.6953125,-22.94921875,262.6953125,0.48828125,-25.87890625
1644477864876.1562,5.37109375,-23.92578125,156.25,-12.20703125,-30.2734375
1644477864880.0625,-29.296875,-27.34375,-250.9765625,-35.64453125,53.7109375
1644477864883.9688,-48.33984375,-25.390625,-776.3671875,-39.55078125,310.546875
1644477864887.875,-21.484375,-15.13671875,-299.31640625,-14.6484375,192.3828125
1644477864891.7812,13.671875,-13.671875,524.90234375,-1.46484375,-19.53125
1644477864895.6875,5.859375,-16.6015625,325.1953125,-15.13671875,31.73828125
1644477864899.5938,-22.4609375,-19.53125,3.90625,-38.57421875,-10.25390625
1644477864903.5,-33.69140625,-20.99609375,-127.9296875,-44.921875,-80.078125
1644477864907.4062,-10.25390625,-13.671875,14.16015625,-27.34375,-60.05859375
1644477864911.3125,20.01953125,-9.765625,180.17578125,-9.27734375,30.76171875
1644477864915.2188,17.578125,-12.20703125,186.5234375,-8.30078125,-9.27734375
1644477864919.125,-16.11328125,-18.5546875,25.87890625,-22.4609375,-65.91796875
1644477864923.0312,-56.15234375,-21.484375,-337.40234375,-43.45703125,-7.8125
1644477864926.9375,-42.48046875,-22.94921875,-524.90234375,-31.25,227.5390625
1644477864930.8438,-6.8359375,-22.94921875,-229.98046875,-0.48828125,412.109375
1644477864934.75,-1.46484375,-14.16015625,349.12109375,-0.9765625,103.02734375
1644477864938.6562,-29.296875,-17.08984375,201.171875,-23.4375,-49.8046875
1644477864942.5625,-56.640625,-29.296875,-459.47265625,-43.45703125,79.1015625
1644477864946.4688,-44.43359375,-30.2734375,-213.8671875,-37.109375,-4.8828125
1644477864950.375,-5.859375,-28.80859375,400.390625,-16.6015625,-40.52734375
1644477864954.2812,-0.48828125,-27.83203125,344.23828125,-9.765625,40.52734375
1644477864958.1875,-31.73828125,-28.3203125,32.2265625,-20.01953125,69.3359375
1644477864962.0938,-51.26953125,-30.76171875,-182.6171875,-37.109375,-29.78515625
1644477864966,-41.9921875,-28.3203125,-105.46875,-34.1796875,-108.3984375
1644477864969.9062,-3.41796875,-25.390625,32.2265625,-8.7890625,113.28125
1644477864973.8125,3.41796875,-27.34375,-204.58984375,-0.48828125,436.5234375
1644477864977.7188,-21.97265625,-26.85546875,-36.62109375,-21.97265625,159.1796875
1644477864981.625,-38.0859375,-31.73828125,-39.0625,-35.64453125,-135.7421875
1644477864985.5312,-29.296875,-31.25,-351.07421875,-28.3203125,45.8984375
1644477864989.4375,-0.48828125,-20.01953125,-123.046875,-20.5078125,203.61328125
1644477864993.3438,7.32421875,-13.671875,386.23046875,-15.625,19.53125
1644477864997.25,-4.8828125,-14.6484375,289.0625,-18.06640625,-84.47265625
1644477865001.1562,-10.25390625,-15.13671875,-260.7421875,-23.4375,-7.32421875
1644477865005.0625,-9.765625,-20.5078125,-350.09765625,-24.4140625,-2.44140625
1644477865008.9688,10.25390625,-26.3671875,164.0625,-8.7890625,-74.21875
1644477865012.875,22.4609375,-31.25,382.8125,5.37109375,-39.55078125
1644477865016.7812,1.46484375,-33.203125,-5.37109375,-1.953125,206.54296875
1644477865020.6875,-32.2265625,-33.69140625,-333.0078125,-28.3203125,187.98828125
1644477865024.5938,-47.8515625,-38.57421875,-233.88671875,-49.31640625,-97.65625
1644477865028.5,-21.484375,-37.59765625,122.0703125,-32.71484375,-63.96484375
1644477865032.4062,4.8828125,-41.50390625,-20.99609375,-5.37109375,214.84375
1644477865036.3125,-3.90625,-39.0625,-91.796875,-10.7421875,143.06640625
1644477865040.2188,-32.71484375,-28.80859375,61.5234375,-34.1796875,-69.82421875
1644477865044.125,-47.36328125,-28.3203125,-296.38671875,-39.55078125,42.48046875
1644477865048.0312,-23.4375,-32.71484375,-310.546875,-20.5078125,173.33984375
1644477865051.9375,4.39453125,-33.203125,293.45703125,0,54.6875
1644477865055.8438,0,-29.78515625,359.86328125,-9.765625,-81.0546875
1644477865059.75,-28.80859375,-35.15625,-63.4765625,-29.78515625,-71.2890625
1644477865063.6562,-40.52734375,-38.0859375,-366.69921875,-30.76171875,-5.37109375
1644477865067.5625,-20.01953125,-34.66796875,-230.46875,-15.625,121.58203125
1644477865071.4688,3.41796875,-33.203125,261.71875,3.41796875,108.3984375
1644477865075.375,-1.953125,-39.0625,247.0703125,-4.39453125,85.9375
1644477865079.2812,-34.66796875,-41.015625,-407.2265625,-31.25,366.69921875
1644477865083.1875,-54.19921875,-35.15625,-260.25390625,-53.22265625,165.0390625
1644477865087.0938,-29.78515625,-28.80859375,185.05859375,-38.57421875,-21.97265625
1644477865091,8.30078125,-25.390625,270.01953125,-6.34765625,83.0078125
1644477865094.9062,10.25390625,-33.203125,289.55078125,-6.8359375,56.640625
1644477865098.8125,-21.97265625,-35.15625,126.46484375,-28.3203125,4.39453125
1644477865102.7188,-45.41015625,-32.71484375,-257.8125,-45.41015625,72.265625
1644477865106.625,-29.78515625,-31.25,-365.72265625,-39.55078125,152.83203125
1644477865110.5312,-2.44140625,-27.83203125,-5.37109375,-12.20703125,177.734375
1644477865114.4375,1.46484375,-22.4609375,184.08203125,0.9765625,200.68359375
1644477865118.3438,-20.5078125,-19.53125,126.953125,-14.6484375,91.796875
1644477865122.25,-50.29296875,-22.4609375,-478.02734375,-30.2734375,166.50390625
1644477865126.1562,-46.38671875,-29.78515625,-696.2890625,-27.83203125,286.62109375
1644477865130.0625,-6.34765625,-30.76171875,271.484375,-20.01953125,-12.20703125
1644477865133.9688,12.20703125,-35.64453125,500,-9.27734375,-6.34765625
1644477865137.875,-12.6953125,-38.0859375,-132.32421875,-17.08984375,149.4140625
1644477865141.7812,-42.48046875,-28.3203125,-192.87109375,-34.66796875,-14.6484375
1644477865145.6875,-32.71484375,-21.484375,12.20703125,-32.71484375,-88.8671875
1644477865149.5938,5.37109375,-19.04296875,187.01171875,-9.27734375,-12.20703125
1644477865153.5,11.71875,-24.90234375,254.39453125,-4.8828125,54.6875
1644477865157.4062,-17.08984375,-32.71484375,-29.296875,-31.25,101.5625
1644477865161.3125,-47.36328125,-33.203125,-284.66796875,-51.26953125,85.9375
1644477865165.2188,-46.38671875,-30.2734375,-375.48828125,-48.33984375,129.39453125
1644477865169.125,-7.8125,-28.80859375,-449.21875,-16.11328125,393.06640625
1644477865173.0312,8.30078125,-26.3671875,85.44921875,1.46484375,264.16015625
1644477865176.9375,-8.30078125,-28.80859375,393.06640625,-10.7421875,-12.6953125
1644477865180.8438,-39.55078125,-32.71484375,-44.921875,-32.2265625,-12.20703125
1644477865184.75,-53.22265625,-32.2265625,-160.15625,-38.0859375,-25.390625
1644477865188.6562,-19.04296875,-33.203125,222.16796875,-18.06640625,-35.15625
1644477865192.5625,3.41796875,-34.66796875,395.5078125,-6.8359375,7.32421875
1644477865196.4688,-17.578125,-38.0859375,140.625,-19.04296875,103.515625
1644477865200.375,-41.9921875,-34.66796875,-126.953125,-43.9453125,0.48828125
1644477865204.2812,-46.38671875,-32.2265625,-371.09375,-46.38671875,-91.30859375
1644477865208.1875,-27.83203125,-35.64453125,-159.1796875,-30.76171875,94.23828125
1644477865212.0938,-3.90625,-36.62109375,-35.64453125,-16.6015625,317.3828125
1644477865216,-12.20703125,-30.76171875,-191.40625,-18.5546875,275.87890625
1644477865219.9062,-34.66796875,-24.4140625,-72.75390625,-37.109375,37.59765625
1644477865223.8125,-44.921875,-23.92578125,-176.7578125,-45.8984375,-59.5703125
1644477865227.7188,-23.4375,-21.97265625,-246.58203125,-20.01953125,64.453125
1644477865231.625,1.953125,-21.484375,283.69140625,-0.9765625,23.4375
1644477865235.5312,-6.8359375,-23.92578125,426.7578125,-7.8125,-109.86328125
1644477865239.4375,-33.69140625,-22.94921875,24.90234375,-19.04296875,-75.68359375
1644477865243.3438,-45.8984375,-19.53125,-272.4609375,-30.2734375,-70.80078125
1644477865247.25,-22.94921875,-21.484375,-85.44921875,-25.390625,-110.3515625
1644477865251.1562,4.8828125,-26.3671875,177.24609375,-0.48828125,-20.01953125
1644477865255.0625,5.37109375,-20.99609375,21.484375,11.71875,130.859375
1644477865258.9688,-25.87890625,-23.4375,-481.4453125,-5.859375,255.859375
1644477865262.875,-50.29296875,-25.390625,-360.3515625,-29.296875,-17.08984375
1644477865266.7812,-40.52734375,-26.3671875,53.7109375,-22.4609375,-238.76953125
1644477865270.6875,-15.625,-34.1796875,218.26171875,-5.37109375,-127.9296875
1644477865274.5938,-6.8359375,-33.69140625,165.52734375,-0.9765625,-71.77734375
1644477865278.5,-27.34375,-30.2734375,-54.19921875,-8.7890625,-143.06640625
1644477865282.4062,-54.19921875,-31.73828125,-226.07421875,-30.76171875,-290.0390625
1644477865286.3125,-42.96875,-30.2734375,-316.89453125,-24.4140625,-199.21875
1644477865290.2188,-8.7890625,-29.78515625,38.57421875,1.46484375,-94.7265625
1644477865294.125,0.48828125,-27.83203125,363.76953125,0.48828125,-173.828125
1644477865298.0312,-17.08984375,-27.83203125,32.71484375,-17.08984375,-90.33203125
1644477865301.9375,-44.921875,-25.87890625,-457.51953125,-30.2734375,112.79296875
1644477865305.8438,-42.96875,-22.4609375,-278.80859375,-29.78515625,-44.43359375
1644477865309.75,-2.44140625,-21.97265625,323.2421875,-4.8828125,-222.16796875
1644477865313.6562,20.5078125,-17.578125,403.80859375,13.18359375,-113.28125
1644477865317.5625,-6.34765625,-23.92578125,-170.8984375,0.48828125,94.23828125
1644477865321.4688,-42.48046875,-28.3203125,-365.72265625,-21.97265625,-64.94140625
1644477865325.375,-46.38671875,-32.71484375,-72.75390625,-21.97265625,-295.8984375
1644477865329.2812,-12.20703125,-36.62109375,134.27734375,3.41796875,-187.98828125
1644477865333.1875,11.23046875,-38.0859375,122.55859375,13.671875,24.90234375
1644477865337.0938,-6.34765625,-38.57421875,48.828125,0.48828125,-39.55078125
1644477865341,-41.015625,-38.0859375,-56.15234375,-6.8359375,-205.078125
1644477865344.9062,-38.0859375,-35.64453125,-306.15234375,-3.41796875,-59.08203125
1644477865348.8125,-5.37109375,-29.296875,-200.1953125,13.18359375,62.98828125
1644477865352.7188,11.23046875,-25.390625,299.8046875,26.3671875,-39.0625
1644477865356.625,-6.8359375,-23.92578125,365.72265625,16.11328125,-144.53125
1644477865360.5312,-33.69140625,-23.4375,-93.75,-11.71875,-150.87890625
1644477865364.4375,-41.015625,-21.484375,-814.94140625,-16.11328125,203.125
1644477865368.3438,-10.7421875,-9.27734375,-417.48046875,-0.9765625,218.75
1644477865372.25,27.34375,-3.41796875,429.19921875,14.16015625,-115.234375
1644477865376.1562,22.94921875,-10.7421875,291.015625,13.18359375,-123.046875
1644477865380.0625,-23.4375,-24.90234375,7.8125,-14.16015625,-163.0859375
1644477865383.9688,-62.01171875,-33.69140625,-31.73828125,-47.36328125,-215.8203125
1644477865387.875,-39.0625,-28.3203125,106.4453125,-37.59765625,-186.03515625
1644477865391.7812,1.46484375,-27.83203125,119.140625,-8.7890625,27.83203125
1644477865395.6875,-10.7421875,-33.69140625,46.38671875,-28.3203125,92.7734375
1644477865399.5938,-41.50390625,-38.57421875,-111.328125,-46.38671875,-55.17578125
1644477865403.5,-65.91796875,-42.96875,-221.19140625,-46.875,-159.66796875
1644477865407.4062,-44.43359375,-45.41015625,-366.2109375,-34.66796875,79.58984375
1644477865411.3125,-19.53125,-51.7578125,-144.04296875,-22.4609375,189.94140625
1644477865415.2188,-34.1796875,-54.6875,412.59765625,-28.80859375,-85.9375
1644477865419.125,-51.7578125,-62.98828125,149.4140625,-28.80859375,-130.37109375
1644477865423.0312,-70.3125,-66.40625,-413.57421875,-22.4609375,-5.859375
1644477865426.9375,-58.59375,-64.94140625,-92.7734375,-17.578125,-66.40625
1644477865430.8438,-30.76171875,-70.3125,418.45703125,-3.41796875,-126.46484375
1644477865434.75,-26.85546875,-75.1953125,311.5234375,9.765625,-19.04296875
1644477865438.6562,-40.0390625,-74.21875,-140.625,11.23046875,148.92578125
1644477865442.5625,-60.05859375,-70.3125,-339.35546875,-4.8828125,30.76171875
1644477865446.4688,-48.33984375,-64.94140625,-31.25,-3.41796875,-147.4609375
1644477865450.375,-11.23046875,-74.70703125,207.51953125,20.5078125,-54.19921875
1644477865454.2812,-4.39453125,-76.66015625,-245.1171875,42.96875,410.64453125
1644477865458.1875,-26.3671875,-58.59375,-104.00390625,28.3203125,247.55859375
1644477865462.0938,-60.546875,-63.96484375,81.0546875,7.32421875,-171.875
1644477865466,-53.7109375,-63.96484375,-126.953125,20.01953125,-132.32421875
1644477865469.9062,-8.30078125,-55.6640625,202.1484375,27.34375,-61.5234375
1644477865473.8125,2.44140625,-56.15234375,480.95703125,26.85546875,-65.91796875
1644477865477.7188,-17.08984375,-56.15234375,256.34765625,7.32421875,-92.7734375
1644477865481.625,-39.0625,-57.12890625,-255.859375,-14.6484375,-80.078125
1644477865485.5312,-39.0625,-51.7578125,-407.71484375,-10.25390625,-32.71484375
1644477865489.4375,-3.41796875,-41.9921875,-74.70703125,9.27734375,-6.8359375
1644477865493.3438,14.6484375,-33.203125,241.2109375,19.53125,-29.296875
1644477865497.25,-10.25390625,-37.109375,-169.921875,12.20703125,151.85546875
1644477865501.1562,-50.29296875,-42.96875,-596.6796875,-14.16015625,194.82421875
1644477865505.0625,-49.31640625,-39.0625,-130.37109375,-18.5546875,-145.5078125
1644477865508.9688,-6.8359375,-33.203125,207.03125,8.30078125,-142.08984375
1644477865512.875,18.5546875,-32.2265625,164.0625,16.11328125,89.84375
1644477865516.7812,3.41796875,-23.4375,201.171875,11.23046875,-33.203125
1644477865520.6875,-38.57421875,-24.4140625,64.94140625,-7.32421875,-174.31640625
1644477865524.5938,-56.640625,-32.2265625,-228.515625,-21.97265625,-175.29296875
1644477865528.5,-25.87890625,-33.69140625,-95.21484375,-1.953125,-51.26953125
1644477865532.4062,0.48828125,-30.2734375,201.66015625,15.13671875,62.5
1644477865536.3125,-10.7421875,-28.3203125,112.79296875,-0.9765625,-37.59765625
1644477865540.2188,-45.8984375,-32.2265625,-178.7109375,-16.6015625,4.39453125
1644477865544.125,-62.01171875,-35.64453125,-666.015625,-15.625,239.2578125
1644477865548.0312,-33.69140625,-31.73828125,-128.90625,-2.44140625,68.359375
1644477865551.9375,0.9765625,-25.87890625,535.64453125,19.04296875,-83.49609375
1644477865555.8438,-8.30078125,-23.4375,299.8046875,18.06640625,24.90234375
1644477865559.75,-44.43359375,-29.296875,13.671875,-10.7421875,0
1644477865563.6562,-64.94140625,-37.59765625,-122.0703125,-31.73828125,-108.88671875
1644477865567.5625,-43.45703125,-38.0859375,-30.2734375,-17.08984375,-121.09375
1644477865571.4688,-7.8125,-38.0859375,119.140625,6.34765625,104.4921875
1644477865575.375,-11.23046875,-37.109375,198.73046875,-3.90625,138.18359375
1644477865579.2812,-36.1328125,-32.71484375,-28.3203125,-24.90234375,42.48046875
1644477865583.1875,-62.01171875,-36.1328125,-354.00390625,-33.203125,3.90625
1644477865587.0938,-45.41015625,-37.109375,-500.48828125,-19.04296875,182.12890625
1644477865591,-9.27734375,-32.2265625,-241.2109375,-0.48828125,324.70703125
1644477865594.9062,-6.8359375,-24.4140625,367.67578125,-11.71875,17.08984375
1644477865598.8125,-29.78515625,-19.53125,210.44921875,-29.296875,-61.5234375
1644477865602.7188,-51.7578125,-22.4609375,-384.765625,-51.7578125,32.2265625
1644477865606.625,-41.50390625,-19.04296875,-168.45703125,-50.78125,-52.24609375
1644477865610.5312,-6.34765625,-19.04296875,371.58203125,-12.20703125,-59.5703125
1644477865614.4375,0.9765625,-22.94921875,340.8203125,1.46484375,29.296875
1644477865618.3438,-31.73828125,-23.4375,37.59765625,-10.25390625,54.6875
1644477865622.25,-56.640625,-22.4609375,-155.2734375,-32.2265625,-2.44140625
1644477865626.1562,-47.36328125,-24.90234375,-245.1171875,-51.26953125,-15.13671875
1644477865630.0625,-19.04296875,-22.94921875,-32.71484375,-22.94921875,101.5625
1644477865633.9688,-8.30078125,-22.94921875,-253.41796875,3.41796875,515.13671875
1644477865637.875,-30.76171875,-30.2734375,-196.77734375,-18.5546875,328.125
1644477865641.7812,-53.22265625,-28.3203125,27.34375,-35.15625,-96.19140625
1644477865645.6875,-46.38671875,-25.390625,-124.51171875,-31.25,-38.0859375
1644477865649.5938,-15.13671875,-29.296875,186.03515625,3.41796875,39.0625
1644477865653.5,0.9765625,-32.2265625,470.21484375,29.296875,29.78515625
1644477865657.4062,-14.6484375,-32.2265625,236.328125,2.44140625,-29.78515625
1644477865661.3125,-47.36328125,-30.76171875,-247.55859375,-27.34375,-18.5546875
1644477865665.2188,-47.8515625,-26.3671875,-306.15234375,-22.94921875,-22.4609375
1644477865669.125,-3.41796875,-18.06640625,114.2578125,0.9765625,-8.7890625
1644477865673.0312,14.6484375,-20.99609375,275.390625,15.625,162.109375
1644477865676.9375,-8.7890625,-26.85546875,-181.15234375,4.8828125,358.88671875
1644477865680.8438,-44.921875,-27.34375,-508.7890625,-15.13671875,259.27734375
1644477865684.75,-51.7578125,-24.90234375,-172.36328125,-8.7890625,-50.78125
1644477865688.6562,-16.11328125,-26.3671875,60.546875,42.96875,-19.04296875
1644477865692.5625,10.7421875,-28.3203125,58.59375,80.56640625,194.82421875
1644477865696.4688,-4.8828125,-22.94921875,149.90234375,38.57421875,104.98046875
1644477865700.375,-30.2734375,-18.5546875,91.30859375,-45.41015625,-116.2109375
1644477865704.2812,-41.015625,-23.92578125,-207.51953125,-91.796875,-121.09375
1644477865708.1875,-19.53125,-24.90234375,-116.2109375,-51.26953125,-54.6875
1644477865712.0938,13.671875,-25.87890625,314.453125,-27.83203125,-41.015625
1644477865716,4.8828125,-28.3203125,350.5859375,-42.96875,-36.62109375
1644477865719.9062,-30.2734375,-31.73828125,-126.953125,-53.7109375,137.6953125
1644477865723.8125,-53.7109375,-36.62109375,-605.46875,-55.17578125,308.10546875
1644477865727.7188,-34.66796875,-37.109375,-144.04296875,-36.1328125,48.828125
1644477865731.625,-6.34765625,-32.2265625,445.3125,-17.578125,-105.95703125
1644477865735.5312,-11.23046875,-30.76171875,201.171875,-12.6953125,45.8984375
1644477865739.4375,-36.1328125,-31.25,-242.67578125,-25.87890625,118.65234375
1644477865743.3438,-52.24609375,-25.390625,-225.5859375,-39.55078125,-81.54296875
1644477865747.25,-38.57421875,-20.99609375,-84.47265625,-14.6484375,-67.87109375
1644477865751.1562,-13.671875,-26.85546875,103.515625,19.53125,64.94140625
1644477865755.0625,-8.30078125,-37.109375,203.125,49.8046875,61.03515625
1644477865758.9688,-27.34375,-37.109375,168.45703125,49.8046875,-99.12109375
1644477865762.875,-59.5703125,-21.484375,-127.44140625,6.8359375,-173.828125
1644477865766.7812,-44.921875,-17.578125,-292.96875,-3.41796875,23.4375
1644477865770.6875,6.8359375,-19.53125,41.015625,1.46484375,149.4140625
1644477865774.5938,11.71875,-20.99609375,340.33203125,-12.20703125,30.2734375
1644477865778.5,-18.06640625,-21.484375,192.87109375,-23.92578125,-52.734375
1644477865782.4062,-39.55078125,-24.4140625,-476.5625,-40.0390625,115.72265625
1644477865786.3125,-23.92578125,-21.484375,-422.8515625,-28.3203125,51.7578125
1644477865790.2188,21.97265625,-17.08984375,333.984375,-0.9765625,-143.5546875
1644477865794.125,35.15625,-11.71875,400.390625,2.9296875,-45.8984375
1644477865798.0312,8.7890625,-8.30078125,84.47265625,-20.99609375,14.16015625
1644477865801.9375,-30.2734375,-19.53125,-159.66796875,-48.33984375,-61.5234375
1644477865805.8438,-30.76171875,-29.296875,-230.95703125,-51.7578125,-49.31640625
1644477865809.75,0.9765625,-31.73828125,-9.27734375,-28.3203125,-12.20703125
1644477865813.6562,12.20703125,-33.203125,-190.91796875,-10.7421875,335.44921875
1644477865817.5625,-13.18359375,-29.296875,-192.87109375,-19.53125,265.13671875
1644477865821.4688,-33.69140625,-18.5546875,-9.27734375,-45.8984375,-150.390625
1644477865825.375,-26.3671875,-16.6015625,-203.125,-40.0390625,-117.1875
1644477865829.2812,0.9765625,-25.87890625,-117.1875,-11.71875,82.03125
1644477865833.1875,15.13671875,-31.73828125,382.8125,0,-46.38671875
1644477865837.0938,-5.859375,-32.71484375,352.05078125,-0.48828125,-148.92578125
1644477865841,-39.55078125,-34.1796875,-121.58203125,-25.87890625,-90.33203125
1644477865844.9062,-47.8515625,-33.203125,-249.51171875,-42.48046875,-137.6953125
1644477865848.8125,-12.6953125,-29.296875,131.8359375,-20.5078125,-163.57421875
1644477865852.7188,17.08984375,-31.25,376.953125,-9.765625,-93.26171875
1644477865856.625,-1.46484375,-31.25,85.44921875,-30.2734375,-5.37109375
1644477865860.5312,-30.76171875,-27.34375,-307.12890625,-36.62109375,23.4375
1644477865864.4375,-32.2265625,-19.04296875,-383.7890625,-28.80859375,14.6484375
1644477865868.3438,-1.46484375,-19.04296875,-42.96875,-23.4375,9.765625
1644477865872.25,20.01953125,-32.71484375,-25.390625,-6.8359375,237.3046875
1644477865876.1562,-5.859375,-39.0625,-318.84765625,-7.8125,368.65234375
1644477865880.0625,-41.9921875,-36.62109375,-17.08984375,-25.87890625,-52.24609375
1644477865883.9688,-61.03515625,-41.015625,-6.34765625,-49.31640625,-191.40625
1644477865887.875,-38.57421875,-37.109375,-1.46484375,-32.2265625,-63.4765625
1644477865891.7812,-4.8828125,-29.296875,419.921875,1.953125,-76.171875
1644477865895.6875,-7.32421875,-26.85546875,442.87109375,14.6484375,-79.58984375
1644477865899.5938,-28.80859375,-26.3671875,36.1328125,1.953125,-81.0546875
1644477865903.5,-43.9453125,-24.90234375,-292.48046875,-25.87890625,-94.7265625
1644477865907.4062,-22.94921875,-27.83203125,-176.26953125,-20.5078125,-2.44140625
1644477865911.3125,6.8359375,-32.2265625,174.31640625,17.08984375,67.3828125
1644477865915.2188,5.859375,-30.2734375,135.25390625,13.18359375,118.1640625
1644477865919.125,-10.7421875,-25.87890625,-411.62109375,-29.296875,245.1171875
1644477865923.0312,-34.66796875,-19.53125,-389.16015625,-54.6875,31.73828125
1644477865926.9375,-23.4375,-22.4609375,84.9609375,-43.45703125,-205.078125
1644477865930.8438,22.4609375,-27.34375,267.08984375,-8.30078125,-42.96875
1644477865934.75,24.90234375,-26.85546875,122.0703125,-4.39453125,79.1015625
1644477865938.6562,-28.3203125,-44.921875,127.44140625,-46.38671875,-145.01953125
1644477865942.5625,-64.94140625,-58.10546875,-30.2734375,-66.40625,-201.66015625
1644477865946.4688,-52.24609375,-55.17578125,-173.828125,-55.17578125,-89.84375
1644477865950.375,-13.671875,-50.78125,180.6640625,-31.25,-66.89453125
1644477865954.2812,-7.8125,-51.7578125,267.578125,-10.7421875,42.48046875
1644477865958.1875,-32.71484375,-54.6875,-25.87890625,-22.94921875,-15.13671875
1644477865962.0938,-55.17578125,-54.19921875,-516.6015625,-43.9453125,12.6953125
1644477865966,-45.8984375,-43.9453125,-518.06640625,-44.43359375,88.37890625
1644477865969.9062,-10.25390625,-40.0390625,299.8046875,-20.99609375,-101.5625
1644477865973.8125,8.7890625,-40.52734375,445.80078125,-1.953125,-144.53125
1644477865977.7188,-8.30078125,-39.0625,41.9921875,-7.8125,-71.77734375
1644477865981.625,-41.015625,-39.0625,-235.3515625,-20.99609375,-53.22265625
1644477865985.5312,-55.6640625,-37.59765625,-123.53515625,-31.73828125,-172.36328125
1644477865989.4375,-23.92578125,-40.0390625,137.20703125,-20.99609375,-115.72265625
1644477865993.3438,12.6953125,-34.66796875,78.61328125,7.8125,89.84375
1644477865997.25,-2.9296875,-32.2265625,86.9140625,6.8359375,-43.45703125
1644477866001.1562,-50.29296875,-41.50390625,-128.90625,-34.66796875,-163.0859375
1644477866005.0625,-57.6171875,-42.48046875,-410.64453125,-75.1953125,-34.1796875
1644477866008.9688,-19.53125,-44.43359375,-454.1015625,-54.19921875,217.28515625
1644477866012.875,-7.32421875,-41.9921875,166.50390625,-35.15625,78.125
1644477866016.7812,-16.11328125,-39.55078125,373.53515625,-29.78515625,-148.92578125
1644477866020.6875,-35.15625,-41.50390625,-97.16796875,-38.57421875,-164.55078125
1644477866024.5938,-50.29296875,-37.59765625,-214.35546875,-47.8515625,-168.45703125
1644477866028.5,-22.4609375,-37.109375,121.09375,-33.203125,-159.66796875
1644477866032.4062,8.30078125,-34.66796875,381.8359375,-13.18359375,-117.1875
1644477866036.3125,-3.41796875,-37.59765625,109.86328125,-16.11328125,-10.25390625
1644477866040.2188,-35.15625,-42.48046875,-230.95703125,-40.0390625,23.4375
1644477866044.125,-52.24609375,-36.1328125,-242.67578125,-46.38671875,-101.07421875
1644477866048.0312,-25.390625,-31.73828125,-50.29296875,-29.296875,-62.01171875
1644477866051.9375,11.71875,-29.78515625,-97.65625,-8.30078125,306.15234375
1644477866055.8438,6.8359375,-30.76171875,-394.04296875,-8.30078125,469.23828125
1644477866059.75,-27.34375,-30.76171875,-43.9453125,-27.83203125,23.92578125
1644477866063.6562,-64.453125,-36.62109375,-12.20703125,-41.50390625,-183.10546875
1644477866067.5625,-48.828125,-31.25,-98.14453125,-37.109375,-72.75390625
1644477866071.4688,-6.8359375,-25.390625,352.05078125,-13.18359375,-67.3828125
1644477866075.375,-11.23046875,-34.1796875,409.66796875,-7.8125,-87.890625
1644477866079.2812,-33.69140625,-35.15625,62.5,-24.90234375,-69.3359375
1644477866083.1875,-53.22265625,-36.62109375,-267.08984375,-25.87890625,-66.40625
1644477866087.0938,-38.57421875,-44.43359375,-125.48828125,-0.48828125,-161.62109375
1644477866091,14.6484375,-33.69140625,271.484375,34.1796875,-132.8125
1644477866094.9062,20.99609375,-21.484375,110.3515625,29.78515625,140.625
1644477866098.8125,-26.85546875,-19.04296875,-411.62109375,-20.5078125,261.23046875
1644477866102.7188,-67.3828125,-16.11328125,-404.78515625,-80.56640625,119.62890625
1644477866106.625,-53.7109375,-10.25390625,-45.8984375,-112.3046875,-88.37890625
1644477866110.5312,-15.13671875,-0.48828125,136.23046875,-76.171875,-56.15234375
1644477866114.4375,-17.08984375,3.90625,-128.90625,-62.98828125,249.51171875
1644477866118.3438,-61.03515625,4.39453125,-5.37109375,-109.375,81.0546875
1644477866122.25,-103.515625,5.859375,-26.3671875,-153.80859375,-167.96875
1644477866126.1562,-86.9140625,3.90625,-219.23828125,-146.484375,-99.609375
1644477866130.0625,-45.41015625,13.18359375,131.8359375,-125,-41.015625
1644477866133.9688,-43.45703125,21.484375,371.58203125,-106.4453125,-56.640625
1644477866137.875,-59.5703125,18.5546875,154.78515625,-100.5859375,-87.40234375
1644477866141.7812,-88.8671875,10.7421875,-362.3046875,-115.72265625,65.4296875
1644477866145.6875,-92.7734375,9.765625,-471.6796875,-113.28125,111.81640625
1644477866149.5938,-42.48046875,14.16015625,64.94140625,-87.40234375,-92.28515625
1644477866153.5,-10.7421875,15.625,350.5859375,-70.3125,-70.80078125
1644477866157.4062,-18.5546875,14.6484375,-257.8125,-59.5703125,310.05859375
1644477866161.3125,-46.875,14.6484375,-632.8125,-75.1953125,295.41015625
1644477866165.2188,-43.45703125,17.578125,-118.1640625,-82.03125,-90.33203125
1644477866169.125,0.9765625,20.99609375,182.12890625,-38.0859375,-81.0546875
1644477866173.0312,6.34765625,16.11328125,228.02734375,-14.6484375,64.453125
1644477866176.9375,-25.390625,0,238.28125,-43.45703125,6.34765625
1644477866180.8438,-57.12890625,-7.32421875,-25.87890625,-69.3359375,-155.2734375
1644477866184.75,-65.91796875,-6.34765625,-279.78515625,-60.05859375,-151.3671875
1644477866188.6562,-35.64453125,-9.765625,-210.44921875,-37.59765625,2.44140625
1644477866192.5625,-1.46484375,-9.27734375,33.203125,-22.4609375,74.70703125
1644477866196.4688,-15.13671875,-7.8125,190.4296875,-36.1328125,-48.828125
1644477866200.375,-48.828125,-13.671875,-102.5390625,-55.17578125,-16.6015625
1644477866204.2812,-53.7109375,-13.671875,-742.1875,-45.8984375,236.328125
1644477866208.1875,-29.296875,-15.13671875,-197.75390625,-24.4140625,28.3203125
1644477866212.0938,-1.953125,-25.390625,457.03125,0.9765625,-83.0078125
1644477866216,-9.765625,-35.64453125,134.27734375,-6.34765625,162.59765625
1644477866219.9062,-45.8984375,-34.66796875,-157.71484375,-32.71484375,70.80078125
1644477866223.8125,-63.4765625,-26.3671875,-139.6484375,-33.203125,-138.671875
1644477866227.7188,-35.15625,-25.87890625,19.04296875,-23.4375,-104.98046875
1644477866231.625,-0.9765625,-27.83203125,140.13671875,-45.41015625,46.875
1644477866235.5312,2.9296875,-18.5546875,45.41015625,-57.12890625,76.66015625
1644477866239.4375,-23.92578125,-14.6484375,-136.23046875,-41.9921875,-12.6953125
1644477866243.3438,-47.8515625,-17.578125,-264.6484375,-49.8046875,-75.1953125
1644477866247.25,-28.3203125,-20.5078125,-324.70703125,-31.25,107.91015625
1644477866251.1562,-0.48828125,-22.94921875,63.4765625,-8.30078125,138.18359375
1644477866255.0625,-5.37109375,-26.3671875,415.0390625,-20.5078125,4.39453125
1644477866258.9688,-29.78515625,-31.73828125,118.65234375,-54.19921875,-13.671875
1644477866262.875,-48.33984375,-32.71484375,-579.1015625,-74.21875,199.21875
1644477866266.7812,-38.57421875,-25.87890625,-364.2578125,-58.10546875,154.78515625
1644477866270.6875,-1.953125,-27.34375,264.16015625,-19.04296875,-19.53125
1644477866274.5938,-1.46484375,-28.3203125,137.6953125,-3.90625,157.2265625
1644477866278.5,-33.69140625,-28.3203125,-208.49609375,-14.16015625,172.8515625
1644477866282.4062,-58.10546875,-31.73828125,-346.6796875,-10.25390625,133.30078125
1644477866286.3125,-48.828125,-33.203125,-220.21484375,5.859375,90.33203125
1644477866290.2188,-7.32421875,-32.2265625,62.01171875,39.55078125,87.40234375
1644477866294.125,7.8125,-32.71484375,-103.515625,75.1953125,391.6015625
1644477866298.0312,-25.390625,-31.25,19.53125,28.80859375,167.48046875
1644477866301.9375,-51.26953125,-26.3671875,56.15234375,-5.37109375,-129.39453125
1644477866305.8438,-41.9921875,-28.80859375,-164.0625,21.97265625,-41.015625
1644477866309.75,-13.18359375,-30.76171875,118.65234375,7.32421875,11.23046875
1644477866313.6562,2.9296875,-22.4609375,383.7890625,-18.06640625,-25.87890625
1644477866317.5625,-18.06640625,-24.90234375,170.8984375,-38.0859375,-87.890625
1644477866321.4688,-42.96875,-26.85546875,-239.74609375,-84.47265625,-34.66796875
1644477866325.375,-37.59765625,-22.94921875,-299.31640625,-87.40234375,-45.41015625
1644477866329.2812,-8.30078125,-29.296875,-82.03125,-46.875,14.16015625
1644477866333.1875,5.37109375,-34.1796875,167.96875,-39.55078125,105.46875
1644477866337.0938,-8.7890625,-32.71484375,-185.05859375,-42.48046875,322.265625
1644477866341,-44.921875,-33.203125,-746.09375,-53.7109375,391.6015625
1644477866344.9062,-48.828125,-28.3203125,-292.48046875,-71.77734375,-63.96484375
1644477866348.8125,-6.8359375,-28.80859375,181.640625,-39.0625,-150.390625
1644477866352.7188,14.16015625,-35.64453125,279.296875,-18.06640625,12.6953125
1644477866356.625,8.7890625,-31.73828125,294.43359375,-28.3203125,-55.17578125
1644477866360.5312,-8.7890625,-25.390625,70.3125,-38.0859375,-162.59765625
1644477866364.4375,-36.1328125,-28.80859375,-231.4453125,-46.38671875,-176.26953125
1644477866368.3438,-17.578125,-30.76171875,-121.09375,-25.87890625,-72.265625
1644477866372.25,17.08984375,-25.87890625,279.78515625,-2.9296875,-44.43359375
1644477866376.1562,3.90625,-24.90234375,183.10546875,-8.7890625,-22.4609375
1644477866380.0625,-42.48046875,-30.76171875,-270.99609375,-27.83203125,58.10546875
1644477866383.9688,-68.359375,-32.71484375,-757.32421875,-43.45703125,176.26953125
1644477866387.875,-25.390625,-27.34375,-262.6953125,-32.2265625,11.23046875
1644477866391.7812,17.08984375,-20.01953125,337.40234375,-15.13671875,-67.87109375
1644477866395.6875,-23.92578125,-28.3203125,139.6484375,-15.625,-21.484375
1644477866399.5938,-66.40625,-32.71484375,-102.5390625,-27.83203125,-41.9921875
1644477866403.5,-72.75390625,-25.87890625,-101.07421875,-37.59765625,-138.18359375
1644477866407.4062,-55.6640625,-25.390625,17.578125,-20.5078125,-184.5703125
1644477866411.3125,-26.3671875,-27.83203125,194.82421875,-2.44140625,-58.10546875
1644477866415.2188,-15.625,-23.4375,284.1796875,4.39453125,-27.83203125
1644477866419.125,-32.71484375,-20.99609375,117.67578125,-0.9765625,-89.35546875
1644477866423.0312,-49.8046875,-22.94921875,-266.11328125,9.27734375,-70.3125
1644477866426.9375,-37.59765625,-21.484375,-504.8828125,33.203125,176.7578125
1644477866430.8438,-3.90625,-17.08984375,-138.671875,23.4375,291.50390625
1644477866434.75,9.27734375,-20.01953125,442.87109375,-11.23046875,-4.39453125
1644477866438.6562,-10.25390625,-21.97265625,263.18359375,-39.0625,-73.2421875
1644477866442.5625,-40.0390625,-19.04296875,-244.140625,-58.10546875,-91.30859375
1644477866446.4688,-30.76171875,-17.08984375,-193.359375,-41.015625,-129.39453125
1644477866450.375,15.13671875,-17.08984375,173.828125,-3.41796875,-29.78515625
1644477866454.2812,17.08984375,-26.3671875,241.2109375,9.765625,-1.46484375
1644477866458.1875,-16.6015625,-33.203125,-163.0859375,-16.11328125,36.62109375
1644477866462.0938,-32.71484375,-22.94921875,-234.86328125,-45.8984375,-65.91796875
1644477866466,-35.64453125,-21.484375,-64.453125,-40.0390625,-155.76171875
1644477866469.9062,3.90625,-24.4140625,29.78515625,-22.4609375,44.921875
1644477866473.8125,34.1796875,-26.3671875,-88.37890625,-7.8125,373.53515625
1644477866477.7188,8.30078125,-28.80859375,79.1015625,-20.01953125,135.7421875
1644477866481.625,-21.97265625,-20.5078125,34.1796875,-32.2265625,-187.5
1644477866485.5312,-30.2734375,-15.13671875,-278.3203125,-28.3203125,-122.0703125
1644477866489.4375,-5.859375,-15.13671875,-39.0625,-17.08984375,45.8984375
1644477866493.3438,18.06640625,-13.671875,389.6484375,-8.7890625,0.9765625
1644477866497.25,3.90625,-17.578125,291.015625,-19.53125,-52.734375
1644477866501.1562,-34.66796875,-20.5078125,-145.01953125,-33.69140625,-46.38671875
1644477866505.0625,-51.26953125,-19.53125,-291.9921875,-36.1328125,-58.59375
1644477866508.9688,-18.5546875,-25.87890625,-44.43359375,-27.83203125,-8.30078125
1644477866512.875,4.39453125,-36.1328125,298.828125,-27.34375,-43.9453125
1644477866516.7812,-9.765625,-37.109375,-33.203125,-25.390625,124.51171875
1644477866520.6875,-50.78125,-37.59765625,-511.71875,-39.0625,225.5859375
1644477866524.5938,-69.82421875,-36.1328125,-234.86328125,-40.52734375,-82.51953125
1644477866528.5,-45.8984375,-36.1328125,101.5625,-27.83203125,-125
1644477866532.4062,-13.671875,-40.0390625,127.44140625,-19.04296875,69.3359375
1644477866536.3125,-23.4375,-42.48046875,170.41015625,-10.7421875,28.80859375
1644477866540.2188,-58.10546875,-41.50390625,50.29296875,-23.92578125,-57.12890625
1644477866544.125,-60.546875,-35.15625,-256.8359375,-41.015625,-98.14453125
1644477866548.0312,-27.83203125,-33.203125,-398.4375,-33.69140625,124.0234375
1644477866551.9375,9.765625,-24.90234375,154.78515625,-24.4140625,71.2890625
1644477866555.8438,4.8828125,-23.4375,428.7109375,-22.94921875,-109.86328125
1644477866559.75,-25.390625,-29.78515625,31.25,-34.1796875,-28.3203125
1644477866563.6562,-32.2265625,-31.73828125,-393.06640625,-41.015625,81.54296875
1644477866567.5625,-15.13671875,-34.66796875,-254.39453125,-20.99609375,94.7265625
1644477866571.4688,6.34765625,-36.1328125,199.70703125,2.9296875,107.421875
1644477866575.375,7.32421875,-30.76171875,238.76953125,4.39453125,109.375
1644477866579.2812,-23.4375,-31.73828125,-446.2890625,-0.9765625,330.078125
1644477866583.1875,-51.26953125,-34.1796875,-564.453125,-24.4140625,198.73046875
1644477866587.0938,-30.76171875,-31.73828125,83.984375,-29.296875,-147.4609375
1644477866591,5.37109375,-34.1796875,342.7734375,-16.11328125,-74.70703125
1644477866594.9062,6.8359375,-32.71484375,380.859375,-17.578125,-20.99609375
1644477866598.8125,-15.625,-26.85546875,255.859375,-24.4140625,-128.90625
1644477866602.7188,-50.78125,-27.83203125,-110.83984375,-38.57421875,-176.7578125
1644477866606.625,-48.33984375,-32.2265625,-220.21484375,-34.1796875,-69.3359375
1644477866610.5312,-8.30078125,-33.203125,56.15234375,-0.9765625,40.0390625
1644477866614.4375,2.9296875,-37.109375,195.3125,-0.48828125,82.51953125
1644477866618.3438,-23.92578125,-31.73828125,174.8046875,-12.6953125,-57.6171875
1644477866622.25,-45.8984375,-28.80859375,-447.75390625,-7.8125,102.5390625
1644477866626.1562,-33.69140625,-29.296875,-626.46484375,-0.9765625,249.51171875
1644477866630.0625,0.48828125,-25.390625,239.74609375,-13.671875,-68.84765625
1644477866633.9688,6.34765625,-32.2265625,409.1796875,-34.1796875,-104.98046875
1644477866637.875,-11.71875,-35.15625,-90.8203125,-35.64453125,116.69921875
1644477866641.7812,-34.1796875,-28.80859375,-229.98046875,-44.43359375,-64.94140625
1644477866645.6875,-34.1796875,-25.390625,-94.7265625,-38.57421875,-225.5859375
1644477866649.5938,-2.44140625,-26.85546875,120.60546875,-15.625,-103.02734375
1644477866653.5,10.7421875,-28.3203125,229.98046875,0.48828125,-23.4375
1644477866657.4062,-15.13671875,-29.78515625,6.34765625,-10.25390625,-44.921875
1644477866661.3125,-48.828125,-27.34375,-294.43359375,-31.25,-70.80078125
1644477866665.2188,-42.96875,-23.92578125,-388.18359375,-45.41015625,-18.5546875
1644477866669.125,-10.25390625,-24.4140625,-408.69140625,-49.8046875,224.12109375
1644477866673.0312,0.48828125,-19.04296875,147.4609375,-34.66796875,95.21484375
1644477866676.9375,-6.34765625,-17.08984375,370.60546875,-30.2734375,-129.39453125
1644477866680.8438,-41.50390625,-20.01953125,-137.6953125,-41.50390625,-107.421875
1644477866684.75,-47.8515625,-15.13671875,-383.7890625,-36.1328125,-17.578125
1644477866688.6562,-19.04296875,-15.625,40.52734375,-15.13671875,-79.1015625
1644477866692.5625,-14.16015625,-23.92578125,419.921875,-11.71875,-70.80078125
1644477866696.4688,-30.76171875,-25.87890625,81.54296875,-28.3203125,49.8046875
1644477866700.375,-65.4296875,-25.87890625,-253.90625,-59.08203125,-20.5078125
1644477866704.2812,-89.84375,-22.94921875,-347.65625,-81.54296875,-92.28515625
1644477866708.1875,-68.359375,-15.625,-150.390625,-69.82421875,-14.16015625
1644477866712.0938,-49.31640625,-22.4609375,-45.41015625,-37.109375,147.4609375
1644477866716,-74.21875,-32.71484375,-120.1171875,-55.6640625,192.3828125
1644477866719.9062,-106.93359375,-27.34375,107.421875,-124.0234375,-54.6875
1644477866723.8125,-134.27734375,-20.01953125,-82.03125,-139.16015625,-151.85546875
1644477866727.7188,-133.30078125,-19.04296875,-119.62890625,-136.23046875,-63.4765625
1644477866731.625,-113.28125,-18.5546875,326.66015625,-133.7890625,-38.57421875
1644477866735.5312,-107.91015625,-12.6953125,392.08984375,-123.53515625,-111.328125
1644477866739.4375,-147.4609375,-13.671875,-60.546875,-157.2265625,-80.56640625
1644477866743.3438,-202.63671875,-21.484375,-490.72265625,-191.40625,44.921875
1644477866747.25,-199.21875,-26.3671875,-183.59375,-188.4765625,-42.96875
1644477866751.1562,-165.0390625,-22.94921875,210.44921875,-178.7109375,68.84765625
1644477866755.0625,-165.0390625,-11.71875,124.0234375,-174.8046875,228.02734375
1644477866758.9688,-203.125,-7.8125,-483.3984375,-180.6640625,419.43359375
1644477866762.875,-238.76953125,-3.41796875,-533.69140625,-212.40234375,193.84765625
1644477866766.7812,-229.00390625,-0.48828125,56.15234375,-212.40234375,-153.3203125
1644477866770.6875,-191.40625,-5.37109375,296.875,-186.03515625,-33.69140625
1644477866774.5938,-192.87109375,-5.37109375,268.06640625,-186.03515625,23.92578125
1644477866778.5,-221.6796875,-5.859375,202.1484375,-207.51953125,-92.7734375
1644477866782.4062,-246.09375,-5.37109375,-30.2734375,-232.91015625,-114.74609375
1644477866786.3125,-239.74609375,-6.34765625,-201.66015625,-230.95703125,-62.01171875
1644477866790.2188,-213.37890625,-2.9296875,137.20703125,-210.9375,-78.61328125
1644477866794.125,-207.03125,-1.46484375,364.74609375,-196.2890625,-64.453125
1644477866798.0312,-225.09765625,-5.859375,72.265625,-207.51953125,48.33984375
1644477866801.9375,-238.76953125,-4.39453125,-479.4921875,-229.4921875,284.66796875
1644477866805.8438,-225.09765625,5.859375,-640.625,-231.4453125,383.7890625
1644477866809.75,-204.58984375,-1.46484375,179.19921875,-228.515625,10.7421875
1644477866813.6562,-206.54296875,-12.6953125,493.65234375,-215.33203125,-91.30859375
1644477866817.5625,-223.6328125,-11.71875,-41.015625,-218.75,83.49609375
1644477866821.4688,-249.0234375,-11.23046875,-154.78515625,-224.12109375,-45.8984375
1644477866825.375,-257.32421875,-10.7421875,2.9296875,-207.03125,-174.8046875
1644477866829.2812,-209.47265625,-4.8828125,186.03515625,-186.5234375,-77.1484375
1644477866833.1875,-168.9453125,5.859375,288.57421875,-176.26953125,36.1328125
1644477866837.0938,-183.10546875,0.48828125,180.6640625,-187.98828125,-36.1328125
1644477866841,-207.51953125,-4.8828125,10.25390625,-191.89453125,-141.11328125
1644477866844.9062,-219.7265625,-7.32421875,-319.82421875,-175.78125,49.8046875
1644477866848.8125,-200.1953125,-17.578125,-387.20703125,-169.921875,312.5
1644477866852.7188,-166.015625,-15.625,228.515625,-176.7578125,101.5625
1644477866856.625,-139.16015625,-9.27734375,391.11328125,-177.734375,-103.515625
1644477866860.5312,-190.91796875,-18.06640625,-171.38671875,-187.01171875,-18.5546875
1644477866864.4375,-238.76953125,-19.53125,-604.98046875,-192.87109375,151.85546875
1644477866868.3438,-214.35546875,-15.625,19.04296875,-184.08203125,-24.4140625
1644477866872.25,-181.15234375,-17.08984375,512.20703125,-165.52734375,-118.65234375
1644477866876.1562,-173.33984375,-19.53125,251.953125,-165.0390625,-12.20703125
1644477866880.0625,-182.12890625,-24.90234375,28.3203125,-175.78125,-46.875
1644477866883.9688,-199.21875,-17.08984375,-83.49609375,-172.36328125,-133.7890625
1644477866887.875,-196.77734375,-13.18359375,69.3359375,-163.57421875,-74.70703125
1644477866891.7812,-148.4375,-11.23046875,114.2578125,-137.20703125,223.6328125
1644477866895.6875,-136.71875,-13.671875,16.11328125,-131.34765625,212.40234375
1644477866899.5938,-182.12890625,-18.5546875,75.68359375,-162.109375,-42.48046875
1644477866903.5,-207.03125,-22.4609375,-54.19921875,-176.7578125,-131.34765625
1644477866907.4062,-176.7578125,-31.73828125,-385.25390625,-152.83203125,65.4296875
1644477866911.3125,-128.41796875,-23.92578125,-81.54296875,-115.72265625,161.62109375
1644477866915.2188,-124.0234375,-19.04296875,416.9921875,-122.0703125,-63.4765625
1644477866919.125,-145.5078125,-21.484375,75.1953125,-148.4375,-15.625
1644477866923.0312,-151.3671875,-19.04296875,-406.73828125,-142.578125,90.33203125
1644477866926.9375,-132.8125,-23.4375,-125.48828125,-124.51171875,-56.15234375
1644477866930.8438,-94.7265625,-37.59765625,383.30078125,-114.74609375,-66.89453125
1644477866934.75,-85.44921875,-51.26953125,303.7109375,-117.1875,-11.23046875
1644477866938.6562,-104.98046875,-55.6640625,-106.93359375,-112.3046875,20.5078125
1644477866942.5625,-125.48828125,-49.31640625,-362.79296875,-120.1171875,40.0390625
1644477866946.4688,-112.79296875,-46.875,-128.41796875,-117.67578125,-114.74609375
1644477866950.375,-75.1953125,-54.6875,100.5859375,-91.30859375,-28.3203125
1644477866954.2812,-83.0078125,-64.453125,-270.01953125,-90.33203125,301.26953125
1644477866958.1875,-130.859375,-57.12890625,-127.44140625,-120.60546875,96.6796875
1644477866962.0938,-152.83203125,-63.96484375,-109.375,-131.8359375,-120.1171875
1644477866966,-128.90625,-67.3828125,-340.8203125,-109.86328125,-110.83984375
1644477866969.9062,-87.40234375,-53.7109375,30.76171875,-93.75,-102.5390625
1644477866973.8125,-62.98828125,-42.48046875,284.66796875,-84.9609375,-78.125
1644477866977.7188,-77.63671875,-42.96875,8.30078125,-87.40234375,-25.87890625
1644477866981.625,-114.74609375,-48.828125,-395.01953125,-95.21484375,32.2265625
1644477866985.5312,-123.53515625,-49.8046875,-524.90234375,-89.35546875,41.50390625
1644477866989.4375,-97.16796875,-52.734375,-103.02734375,-72.75390625,54.6875
1644477866993.3438,-70.80078125,-50.29296875,295.8984375,-43.9453125,-16.11328125
1644477866997.25,-64.94140625,-46.38671875,-94.23828125,-49.31640625,153.3203125
1644477867001.1562,-95.703125,-36.62109375,-467.28515625,-113.76953125,186.03515625
1644477867005.0625,-101.5625,-20.01953125,-144.53125,-133.7890625,-107.91015625
1644477867008.9688,-76.171875,-20.01953125,109.375,-105.46875,-97.16796875
1644477867012.875,-63.96484375,-26.3671875,175.78125,-95.21484375,35.15625
1644477867016.7812,-81.54296875,-30.76171875,215.33203125,-101.07421875,2.44140625
1644477867020.6875,-97.65625,-32.2265625,6.34765625,-110.83984375,-97.65625
1644477867024.5938,-95.703125,-30.76171875,-290.52734375,-107.421875,-109.86328125
1644477867028.5,-76.66015625,-20.5078125,-182.6171875,-92.28515625,-15.13671875
1644477867032.4062,-43.45703125,-13.671875,42.96875,-74.70703125,69.82421875
1644477867036.3125,-35.15625,-12.20703125,62.5,-58.59375,107.91015625
1644477867040.2188,-79.58984375,-22.4609375,-187.98828125,-74.70703125,155.2734375
1644477867044.125,-117.67578125,-30.76171875,-763.671875,-96.19140625,390.13671875
1644477867048.0312,-77.1484375,-19.04296875,-375,-66.89453125,238.28125
1644477867051.9375,-39.0625,-19.53125,399.90234375,-37.59765625,-29.78515625
1644477867055.8438,-46.38671875,-30.2734375,286.62109375,-40.0390625,17.08984375
1644477867059.75,-76.66015625,-33.203125,33.69140625,-54.19921875,16.6015625
1644477867063.6562,-100.5859375,-28.3203125,-120.60546875,-68.359375,-107.421875
1644477867067.5625,-74.70703125,-19.53125,-82.03125,-62.98828125,-134.765625
1644477867071.4688,-37.59765625,-17.578125,106.4453125,-59.08203125,14.6484375
1644477867075.375,-37.109375,-31.25,162.59765625,-60.546875,27.34375
1644477867079.2812,-61.03515625,-39.55078125,-131.8359375,-59.5703125,28.80859375
1644477867083.1875,-78.61328125,-29.296875,-383.30078125,-67.3828125,68.359375
1644477867087.0938,-49.8046875,-19.53125,-457.03125,-44.43359375,196.77734375
1644477867091,-21.484375,-20.01953125,-237.79296875,-10.25390625,258.30078125
1644477867094.9062,-41.015625,-28.80859375,239.2578125,-22.4609375,72.265625
1644477867098.8125,-75.1953125,-28.80859375,184.5703125,-49.8046875,-11.71875
1644477867102.7188,-89.35546875,-23.4375,-390.13671875,-42.48046875,40.0390625
1644477867106.625,-71.77734375,-21.484375,-212.890625,-52.734375,-28.3203125
1644477867110.5312,-26.85546875,-20.5078125,357.421875,-64.94140625,-81.54296875
1644477867114.4375,-20.99609375,-21.97265625,349.609375,-60.05859375,3.90625
1644477867118.3438,-50.29296875,-15.13671875,49.8046875,-65.91796875,-4.39453125
1644477867122.25,-73.73046875,-12.6953125,-156.73828125,-85.9375,-72.265625
1644477867126.1562,-60.546875,-22.4609375,-208.0078125,-71.77734375,23.4375
1644477867130.0625,-20.01953125,-17.08984375,-40.52734375,-40.0390625,172.36328125
1644477867133.9688,-18.06640625,-8.7890625,-164.0625,-41.50390625,358.88671875
1644477867137.875,-40.0390625,-7.8125,7.32421875,-58.10546875,144.53125
1644477867141.7812,-52.734375,0,87.890625,-58.59375,-107.421875
1644477867145.6875,-62.5,-7.8125,-166.015625,-51.26953125,-33.69140625
1644477867149.5938,-47.36328125,-23.4375,-5.859375,-37.59765625,38.0859375
1644477867153.5,-46.38671875,-23.4375,246.09375,-37.59765625,83.49609375
1644477867157.4062,-60.05859375,-21.97265625,275.390625,-51.7578125,27.34375
1644477867161.3125,-70.80078125,-27.34375,-159.1796875,-56.640625,-27.83203125
1644477867165.2188,-75.1953125,-30.76171875,-330.078125,-62.5,-61.5234375
1644477867169.125,-35.15625,-22.4609375,89.84375,-36.62109375,-50.78125
1644477867173.0312,-9.765625,-16.11328125,265.625,-10.25390625,37.109375
1644477867176.9375,-14.6484375,-14.16015625,-123.53515625,-15.625,230.95703125
1644477867180.8438,-50.29296875,-20.99609375,-681.640625,-35.64453125,356.93359375
1644477867184.75,-78.61328125,-24.90234375,-289.55078125,-56.15234375,-72.265625
1644477867188.6562,-43.9453125,-24.4140625,203.125,-44.921875,-180.6640625
1644477867192.5625,-0.48828125,-18.5546875,313.4765625,-28.80859375,26.3671875
1644477867196.4688,-10.25390625,-11.23046875,350.09765625,-26.3671875,-46.875
1644477867200.375,-37.109375,-15.625,146.97265625,-33.203125,-156.25
1644477867204.2812,-58.59375,-26.85546875,-147.4609375,-45.41015625,-141.6015625
1644477867208.1875,-56.15234375,-29.296875,-144.04296875,-31.73828125,-44.43359375
1644477867212.0938,-23.4375,-29.78515625,185.546875,-15.13671875,27.83203125
1644477867216,-7.32421875,-31.73828125,325.68359375,-7.8125,-17.08984375
1644477867219.9062,-17.578125,-22.94921875,-48.828125,-27.83203125,65.4296875
1644477867223.8125,-38.57421875,-9.765625,-787.59765625,-42.48046875,396.97265625
1644477867227.7188,-31.73828125,-10.25390625,-459.47265625,-26.3671875,237.3046875
1644477867231.625,12.20703125,-13.671875,432.12890625,-0.48828125,-84.9609375
1644477867235.5312,18.06640625,-21.484375,360.3515625,9.27734375,-79.58984375
1644477867239.4375,-26.3671875,-31.25,66.89453125,-21.97265625,-87.890625
1644477867243.3438,-44.43359375,-26.85546875,-66.40625,-34.1796875,-164.55078125
1644477867247.25,-20.99609375,-26.85546875,1.46484375,-20.01953125,-117.1875
1644477867251.1562,20.5078125,-26.85546875,234.375,-7.8125,9.27734375
1644477867255.0625,25.87890625,-17.08984375,292.96875,-1.953125,14.6484375
1644477867258.9688,-15.625,-24.4140625,145.5078125,-24.4140625,-94.23828125
1644477867262.875,-45.41015625,-35.64453125,-141.6015625,-45.8984375,-127.44140625
1644477867266.7812,-24.4140625,-35.64453125,-308.10546875,-21.484375,57.12890625
1644477867270.6875,33.203125,-35.64453125,-5.859375,15.625,197.75390625
1644477867274.5938,40.0390625,-37.109375,167.96875,20.5078125,149.4140625
1644477867278.5,3.90625,-33.69140625,84.47265625,-5.859375,-65.4296875
1644477867282.4062,-8.7890625,-27.34375,-483.3984375,-7.32421875,69.3359375
1644477867286.3125,-6.34765625,-22.4609375,-680.6640625,10.25390625,214.35546875
1644477867290.2188,9.27734375,-28.3203125,256.34765625,6.8359375,-42.48046875
1644477867294.125,15.625,-42.48046875,502.9296875,11.71875,-55.17578125
1644477867298.0312,-0.48828125,-50.29296875,119.140625,5.37109375,21.484375
1644477867301.9375,-13.18359375,-50.29296875,-67.87109375,10.7421875,-62.5
1644477867305.8438,2.9296875,-40.0390625,-120.60546875,29.78515625,-145.5078125
1644477867309.75,46.875,-35.64453125,71.77734375,39.55078125,-115.234375
1644477867313.6562,72.265625,-34.1796875,111.81640625,53.7109375,59.5703125
1644477867317.5625,65.4296875,-28.3203125,-60.05859375,71.77734375,95.703125
1644477867321.4688,52.24609375,-35.15625,-100.09765625,83.0078125,-41.50390625
1644477867325.375,51.7578125,-49.31640625,-260.7421875,86.42578125,-26.3671875
1644477867329.2812,76.66015625,-59.5703125,-562.01171875,96.6796875,317.87109375
1644477867333.1875,98.6328125,-54.6875,-58.10546875,101.5625,208.984375
1644477867337.0938,105.46875,-49.31640625,323.73046875,111.81640625,-96.6796875
1644477867341,89.35546875,-47.8515625,-104.00390625,121.09375,-80.078125
1644477867344.9062,76.171875,-41.9921875,-276.3671875,126.953125,-76.171875
1644477867348.8125,110.83984375,-39.0625,89.35546875,132.32421875,-77.63671875
1644477867352.7188,149.4140625,-39.55078125,324.21875,132.8125,-54.19921875
1644477867356.625,150.87890625,-41.9921875,45.41015625,134.27734375,-1.46484375
1644477867360.5312,126.953125,-36.1328125,-337.890625,132.32421875,66.89453125
1644477867364.4375,105.46875,-36.62109375,-494.62890625,124.51171875,-2.44140625
1644477867368.3438,126.953125,-43.45703125,-114.2578125,127.44140625,-135.25390625
1644477867372.25,173.828125,-41.015625,-42.48046875,157.71484375,138.18359375
1644477867376.1562,167.48046875,-42.96875,-180.17578125,170.41015625,246.09375
1644477867380.0625,125,-50.29296875,-0.48828125,143.5546875,-91.30859375
1644477867383.9688,108.88671875,-58.59375,-315.91796875,131.34765625,-53.7109375
1644477867387.875,141.11328125,-62.98828125,-316.40625,149.4140625,106.4453125
1644477867391.7812,175.29296875,-65.4296875,256.34765625,161.1328125,-22.94921875
1644477867395.6875,161.1328125,-59.08203125,390.13671875,153.3203125,-79.1015625
1644477867399.5938,139.6484375,-48.33984375,-21.97265625,145.5078125,-55.17578125
1644477867403.5,124.0234375,-48.828125,-451.171875,136.23046875,-44.43359375
1644477867407.4062,140.625,-51.7578125,-317.3828125,140.625,57.12890625
1644477867411.3125,184.08203125,-46.875,93.75,159.66796875,78.61328125
1644477867415.2188,175.78125,-44.43359375,89.84375,155.76171875,24.4140625
1644477867419.125,131.34765625,-45.8984375,-496.58203125,131.8359375,207.03125
1644477867423.0312,91.796875,-43.9453125,-446.77734375,97.65625,23.4375
1644477867426.9375,81.0546875,-43.9453125,-19.04296875,84.9609375,-195.80078125
1644477867430.8438,108.3984375,-47.36328125,179.6875,90.33203125,-77.1484375
1644477867434.75,103.02734375,-47.36328125,250,65.91796875,-34.1796875
1644477867438.6562,52.24609375,-47.8515625,133.7890625,36.1328125,-96.6796875
1644477867442.5625,-0.48828125,-51.26953125,-193.84765625,9.765625,-141.11328125
1644477867446.4688,7.8125,-41.015625,-419.43359375,5.37109375,-46.38671875
1644477867450.375,42.96875,-22.94921875,-19.53125,29.296875,48.828125
1644477867454.2812,41.015625,-24.4140625,250,32.71484375,67.87109375
1644477867458.1875,3.90625,-26.85546875,33.69140625,-1.46484375,58.10546875
1644477867462.0938,-47.8515625,-29.78515625,-496.09375,-32.71484375,125
1644477867466,-50.78125,-36.1328125,-573.73046875,-31.73828125,140.625
1644477867469.9062,-1.953125,-31.25,266.6015625,2.44140625,-43.45703125
1644477867473.8125,11.71875,-27.83203125,479.4921875,21.484375,-55.6640625
1644477867477.7188,-15.13671875,-29.296875,74.21875,5.37109375,-40.0390625
1644477867481.625,-43.45703125,-21.97265625,-141.6015625,-7.32421875,-138.18359375
1644477867485.5312,-56.15234375,-22.4609375,-109.375,-37.59765625,-183.59375
1644477867489.4375,-39.55078125,-25.87890625,90.8203125,-64.94140625,-85.9375
1644477867493.3438,-15.625,-16.11328125,220.21484375,-41.9921875,-5.859375
1644477867497.25,-32.2265625,-19.04296875,168.45703125,-35.64453125,-42.96875
1644477867501.1562,-84.47265625,-26.85546875,-196.77734375,-75.68359375,-16.11328125
1644477867505.0625,-100.09765625,-29.78515625,-427.734375,-105.95703125,-7.8125
1644477867508.9688,-60.05859375,-34.1796875,-530.76171875,-70.80078125,310.546875
1644477867512.875,-35.15625,-34.1796875,-20.5078125,-48.33984375,290.0390625
1644477867516.7812,-53.7109375,-27.34375,406.25,-62.01171875,-68.84765625
1644477867520.6875,-76.171875,-23.4375,-10.7421875,-69.82421875,-100.5859375
1644477867524.5938,-73.2421875,-15.13671875,-227.05078125,-60.05859375,-149.4140625
1644477867528.5,-45.8984375,-16.6015625,112.3046875,-46.38671875,-154.296875
1644477867532.4062,-39.55078125,-32.71484375,417.48046875,-42.96875,-94.7265625
1644477867536.3125,-54.19921875,-35.15625,199.21875,-52.24609375,-38.0859375
1644477867540.2188,-64.453125,-24.4140625,-63.4765625,-51.7578125,-88.37890625
1644477867544.125,-76.66015625,-27.34375,-147.4609375,-58.10546875,-153.80859375
1644477867548.0312,-49.31640625,-28.80859375,-81.54296875,-55.6640625,-4.8828125
1644477867551.9375,-14.16015625,-30.76171875,-36.1328125,-28.3203125,300.29296875
1644477867555.8438,-49.8046875,-40.0390625,-111.81640625,-42.48046875,296.875
1644477867559.75,-84.9609375,-33.69140625,65.4296875,-65.4296875,-38.0859375
1644477867563.6562,-93.75,-31.73828125,-165.52734375,-64.94140625,-57.6171875
1644477867567.5625,-72.75390625,-35.64453125,-374.51171875,-49.8046875,98.6328125
1644477867571.4688,-29.78515625,-33.203125,171.38671875,-32.2265625,31.25
1644477867575.375,-21.97265625,-28.80859375,492.1875,-29.78515625,-102.5390625
1644477867579.2812,-43.45703125,-28.3203125,111.81640625,-35.64453125,-50.78125
1644477867583.1875,-67.3828125,-29.296875,-298.828125,-55.6640625,-25.87890625
1644477867587.0938,-64.453125,-29.296875,-89.84375,-62.98828125,-96.6796875
1644477867591,-38.0859375,-32.71484375,344.7265625,-48.828125,-131.8359375
1644477867594.9062,-37.59765625,-42.48046875,192.3828125,-31.73828125,59.5703125
1644477867598.8125,-56.640625,-39.55078125,-432.12890625,-27.83203125,346.6796875
1644477867602.7188,-83.49609375,-20.99609375,-398.4375,-54.19921875,53.7109375
1644477867606.625,-68.359375,-10.25390625,1.46484375,-52.24609375,-209.47265625
1644477867610.5312,-11.71875,-7.8125,248.53515625,-10.7421875,-31.25
1644477867614.4375,-10.25390625,-15.13671875,328.125,-12.20703125,49.8046875
1644477867618.3438,-51.26953125,-20.5078125,134.27734375,-34.1796875,-27.83203125
1644477867622.25,-73.73046875,-19.53125,-197.265625,-44.43359375,-9.27734375
1644477867626.1562,-61.5234375,-22.94921875,-306.640625,-36.1328125,17.578125
1644477867630.0625,-29.78515625,-26.3671875,86.9140625,-26.3671875,96.6796875
1644477867633.9688,-14.16015625,-23.4375,432.12890625,-43.45703125,4.8828125
1644477867637.875,-20.01953125,-18.5546875,231.93359375,-51.7578125,-98.6328125
1644477867641.7812,-52.734375,-25.390625,-270.01953125,-55.17578125,40.52734375
1644477867645.6875,-81.54296875,-31.25,-416.50390625,-69.82421875,98.6328125
1644477867649.5938,-56.15234375,-26.3671875,145.01953125,-60.05859375,-7.8125
1644477867653.5,-13.671875,-27.83203125,457.51953125,-26.85546875,-41.50390625
1644477867657.4062,-10.7421875,-22.94921875,-81.54296875,-12.6953125,166.015625
1644477867661.3125,-65.91796875,-16.6015625,-308.10546875,-48.828125,144.53125
1644477867665.2188,-71.77734375,-17.08984375,-83.49609375,-67.3828125,-153.3203125
1644477867669.125,-19.04296875,-17.08984375,109.375,-36.62109375,-92.28515625
1644477867673.0312,-16.6015625,-21.484375,294.43359375,-29.296875,89.35546875
1644477867676.9375,-41.50390625,-27.83203125,171.875,-47.36328125,61.03515625
1644477867680.8438,-67.87109375,-26.3671875,-113.76953125,-62.98828125,-73.73046875
1644477867684.75,-77.1484375,-17.08984375,-305.6640625,-63.96484375,-54.6875
1644477867688.6562,-45.8984375,-18.5546875,-422.8515625,-35.15625,260.7421875
1644477867692.5625,-22.4609375,-25.87890625,38.57421875,-21.97265625,255.859375
1644477867696.4688,-31.73828125,-18.06640625,376.953125,-33.69140625,12.20703125
1644477867700.375,-55.17578125,-16.6015625,-29.78515625,-50.29296875,-13.18359375
1644477867704.2812,-82.51953125,-28.80859375,-655.76171875,-63.4765625,133.7890625
1644477867708.1875,-73.2421875,-28.80859375,-104.4921875,-61.03515625,8.30078125
1644477867712.0938,-35.15625,-26.3671875,506.34765625,-40.0390625,-59.08203125
1644477867716,-37.59765625,-24.4140625,241.69921875,-32.71484375,-20.01953125
1644477867719.9062,-67.87109375,-28.3203125,24.90234375,-39.0625,-50.29296875
1644477867723.8125,-76.171875,-33.69140625,-90.33203125,-36.1328125,-112.3046875
1644477867727.7188,-47.36328125,-34.1796875,18.06640625,-28.80859375,-103.02734375
1644477867731.625,-16.6015625,-33.203125,165.0390625,-9.27734375,16.11328125
1644477867735.5312,-22.94921875,-33.203125,31.73828125,-25.390625,108.3984375
1644477867739.4375,-41.50390625,-31.73828125,-152.83203125,-64.453125,38.0859375
1644477867743.3438,-45.41015625,-25.390625,-300.29296875,-61.5234375,-40.52734375
1644477867747.25,-35.64453125,-23.92578125,-405.76171875,-37.59765625,177.24609375
1644477867751.1562,-6.8359375,-22.4609375,-374.0234375,-8.7890625,421.875
1644477867755.0625,0,-20.01953125,239.74609375,-12.6953125,154.78515625
1644477867758.9688,-38.0859375,-28.80859375,319.82421875,-42.48046875,-69.82421875
1644477867762.875,-70.80078125,-34.1796875,-151.3671875,-60.05859375,-64.453125
1644477867766.7812,-49.8046875,-26.3671875,-17.08984375,-55.6640625,-101.5625
1644477867770.6875,-3.41796875,-15.625,357.421875,-22.94921875,-89.84375
1644477867774.5938,-0.48828125,-17.578125,341.796875,-14.6484375,-34.1796875
1644477867778.5,-26.85546875,-21.484375,74.70703125,-33.203125,22.94921875
1644477867782.4062,-56.15234375,-21.484375,-250,-51.26953125,21.97265625
1644477867786.3125,-52.24609375,-24.4140625,-295.8984375,-43.45703125,-24.90234375
1644477867790.2188,-5.37109375,-22.94921875,18.5546875,-12.20703125,12.20703125
1644477867794.125,-2.9296875,-18.5546875,-186.03515625,-12.20703125,311.5234375
1644477867798.0312,-27.34375,-16.11328125,-75.68359375,-39.55078125,229.98046875
1644477867801.9375,-40.52734375,-13.18359375,94.23828125,-38.0859375,-114.2578125
1644477867805.8438,-57.6171875,-20.99609375,-203.61328125,-41.50390625,-42.48046875
1644477867809.75,-37.109375,-25.87890625,-3.41796875,-39.0625,10.25390625
1644477867813.6562,-13.18359375,-25.390625,391.11328125,-16.11328125,-92.7734375
1644477867817.5625,-22.4609375,-31.25,289.0625,-17.08984375,-132.8125
1644477867821.4688,-40.0390625,-34.66796875,-136.23046875,-29.296875,-85.9375
1644477867825.375,-39.0625,-23.92578125,-270.99609375,-29.78515625,-106.93359375
1644477867829.2812,-15.625,-15.625,-11.23046875,-20.5078125,24.4140625
1644477867833.1875,9.765625,-17.578125,206.0546875,-8.7890625,115.234375
1644477867837.0938,10.25390625,-23.4375,-104.00390625,0.48828125,188.4765625
1644477867841,-23.4375,-24.4140625,-450.1953125,-11.71875,191.89453125
1644477867844.9062,-49.8046875,-20.5078125,-121.09375,-26.85546875,-117.67578125
1644477867848.8125,-23.92578125,-22.4609375,183.59375,-17.08984375,-166.50390625
1644477867852.7188,2.9296875,-31.25,214.35546875,7.32421875,-2.44140625
1644477867856.625,-7.32421875,-37.59765625,126.953125,0.48828125,28.80859375
1644477867860.5312,-37.59765625,-32.2265625,65.91796875,-27.34375,-130.37109375
1644477867864.4375,-66.40625,-30.76171875,-205.078125,-46.38671875,-149.4140625
1644477867868.3438,-36.1328125,-28.3203125,-294.43359375,-33.69140625,25.87890625
1644477867872.25,-2.44140625,-27.83203125,184.5703125,-5.37109375,-6.34765625
1644477867876.1562,-21.97265625,-36.1328125,216.30859375,-14.6484375,-10.25390625
1644477867880.0625,-62.98828125,-41.9921875,-154.78515625,-42.96875,41.015625
1644477867883.9688,-83.984375,-44.43359375,-723.14453125,-54.6875,207.03125
1644477867887.875,-75.68359375,-42.96875,-319.82421875,-52.734375,57.6171875
1644477867891.7812,-36.62109375,-41.50390625,485.83984375,-26.85546875,-118.1640625
1644477867895.6875,-14.16015625,-36.62109375,350.5859375,-20.01953125,-77.1484375
1644477867899.5938,-44.921875,-31.25,69.82421875,-39.55078125,-114.74609375
1644477867903.5,-53.7109375,-23.4375,-61.03515625,-42.96875,-160.64453125
1644477867907.4062,-26.3671875,-21.97265625,-2.9296875,-16.11328125,-187.5
1644477867911.3125,-12.6953125,-33.69140625,132.32421875,7.32421875,-49.8046875
1644477867915.2188,-20.5078125,-35.64453125,114.2578125,8.7890625,72.75390625
1644477867919.125,-38.57421875,-26.3671875,18.5546875,-20.5078125,-84.47265625
1644477867923.0312,-49.8046875,-29.296875,-231.93359375,-51.26953125,-94.7265625
1644477867926.9375,-28.3203125,-40.0390625,-470.21484375,-29.296875,152.34375
1644477867930.8438,0.48828125,-28.80859375,-418.9453125,-1.46484375,361.328125
1644477867934.75,-0.48828125,-16.6015625,302.734375,-4.39453125,100.09765625
1644477867938.6562,-11.23046875,-20.01953125,360.83984375,-15.625,-79.1015625
1644477867942.5625,-30.2734375,-18.06640625,-217.7734375,-25.390625,-89.84375
1644477867946.4688,-40.52734375,-20.99609375,-139.6484375,-30.76171875,-159.66796875
1644477867950.375,-16.6015625,-30.76171875,339.35546875,-21.97265625,-94.7265625
1644477867954.2812,-3.41796875,-32.71484375,369.62890625,-14.16015625,-29.296875
1644477867958.1875,-20.99609375,-33.203125,-1.46484375,-19.53125,-50.78125
1644477867962.0938,-49.31640625,-28.3203125,-194.3359375,-45.41015625,-147.94921875
1644477867966,-45.8984375,-18.06640625,-160.15625,-54.19921875,-194.82421875
1644477867969.9062,-10.7421875,-21.484375,-61.03515625,-23.92578125,15.13671875
1644477867973.8125,-5.37109375,-31.25,-173.828125,-17.578125,336.42578125
1644477867977.7188,-40.0390625,-31.25,-95.21484375,-39.0625,174.8046875
1644477867981.625,-71.2890625,-23.4375,11.71875,-57.12890625,-115.234375
1644477867985.5312,-62.01171875,-27.34375,-213.8671875,-50.78125,-64.94140625
1644477867989.4375,-22.94921875,-34.1796875,-355.46875,-23.92578125,168.9453125
1644477867993.3438,0.48828125,-30.76171875,279.296875,-8.30078125,64.94140625
1644477867997.25,-8.7890625,-34.1796875,418.45703125,-24.90234375,-69.3359375
1644477868001.1562,-43.9453125,-39.55078125,-88.8671875,-43.45703125,-55.17578125
1644477868005.0625,-47.8515625,-43.45703125,-227.5390625,-38.57421875,-67.87109375
1644477868008.9688,-13.671875,-40.0390625,108.3984375,-30.2734375,-74.21875
1644477868012.875,10.7421875,-32.2265625,384.27734375,-31.73828125,-23.92578125
1644477868016.7812,-3.41796875,-31.25,63.4765625,-31.25,126.953125
1644477868020.6875,-25.390625,-32.71484375,-303.22265625,-33.69140625,175.78125
1644477868024.5938,-53.7109375,-37.59765625,-334.9609375,-54.19921875,-0.48828125
1644477868028.5,-34.66796875,-36.1328125,13.18359375,-37.109375,-127.44140625
1644477868032.4062,3.90625,-32.71484375,-37.59765625,-4.8828125,177.734375
1644477868036.3125,-4.39453125,-28.3203125,-235.83984375,-8.7890625,305.6640625
1644477868040.2188,-37.59765625,-25.87890625,76.66015625,-39.55078125,-73.73046875
1644477868044.125,-64.453125,-35.64453125,-104.00390625,-52.734375,-177.24609375
1644477868048.0312,-50.78125,-44.43359375,-141.6015625,-39.0625,-62.01171875
1644477868051.9375,-29.296875,-41.50390625,370.1171875,-22.94921875,-30.2734375
1644477868055.8438,-34.66796875,-33.203125,436.5234375,-24.4140625,-51.7578125
1644477868059.75,-42.96875,-26.3671875,50.78125,-25.87890625,-30.2734375
1644477868063.6562,-53.22265625,-27.83203125,-445.3125,-31.25,131.8359375
1644477868067.5625,-59.08203125,-31.25,-336.9140625,-32.2265625,149.90234375
1644477868071.4688,-36.62109375,-34.66796875,304.6875,-20.99609375,-23.4375
1644477868075.375,-28.80859375,-40.52734375,275.87890625,-16.11328125,18.5546875
1644477868079.2812,-52.24609375,-33.69140625,-368.65234375,-23.4375,256.34765625
1644477868083.1875,-73.2421875,-24.90234375,-308.59375,-37.59765625,-12.6953125
1644477868087.0938,-53.22265625,-24.90234375,34.1796875,-39.55078125,-128.41796875
1644477868091,-2.44140625,-21.97265625,120.1171875,-20.5078125,117.67578125
1644477868094.9062,1.46484375,-19.53125,155.76171875,-9.765625,72.75390625
1644477868098.8125,-21.97265625,-19.53125,197.75390625,-28.3203125,-83.984375
1644477868102.7188,-59.08203125,-29.78515625,-70.80078125,-54.6875,-137.6953125
1644477868106.625,-67.3828125,-35.15625,-283.69140625,-52.24609375,-91.796875
1644477868110.5312,-31.25,-27.34375,-4.8828125,-30.2734375,40.0390625
1644477868114.4375,-12.20703125,-27.83203125,141.11328125,-22.4609375,83.984375
1644477868118.3438,-29.296875,-30.76171875,139.16015625,-31.25,-18.5546875
1644477868122.25,-57.12890625,-30.2734375,-400.87890625,-47.8515625,85.44921875
1644477868126.1562,-58.59375,-21.97265625,-731.4453125,-48.828125,217.28515625
1644477868130.0625,-20.5078125,-17.08984375,194.82421875,-32.71484375,-51.7578125
1644477868133.9688,-3.41796875,-25.390625,523.4375,-22.4609375,-84.47265625
1644477868137.875,-38.0859375,-30.76171875,140.13671875,-41.50390625,-10.25390625
1644477868141.7812,-71.2890625,-30.2734375,-41.50390625,-61.03515625,-131.34765625
1644477868145.6875,-74.21875,-28.3203125,-109.375,-59.5703125,-156.73828125
1644477868149.5938,-27.34375,-20.01953125,-4.8828125,-32.2265625,59.08203125
1644477868153.5,-4.39453125,-17.578125,62.5,-12.6953125,161.1328125
1644477868157.4062,-29.78515625,-21.484375,60.546875,-37.59765625,50.78125
1644477868161.3125,-55.17578125,-20.01953125,-118.1640625,-56.640625,-8.7890625
1644477868165.2188,-64.453125,-21.484375,-308.10546875,-65.91796875,-30.76171875
1644477868169.125,-36.62109375,-21.484375,-46.875,-53.7109375,-0.9765625
1644477868173.0312,1.46484375,-23.4375,390.625,-30.76171875,-37.109375
1644477868176.9375,-10.25390625,-27.34375,429.6875,-34.66796875,-90.33203125
1644477868180.8438,-46.875,-30.76171875,-92.28515625,-42.48046875,-20.99609375
1644477868184.75,-58.10546875,-31.73828125,-757.8125,-48.33984375,181.640625
1644477868188.6562,-55.17578125,-31.25,-98.14453125,-59.08203125,13.18359375
1644477868192.5625,-46.38671875,-36.62109375,533.69140625,-54.6875,-68.359375
1644477868196.4688,-51.7578125,-38.0859375,253.41796875,-41.50390625,30.2734375
1644477868200.375,-74.21875,-38.0859375,4.39453125,-49.8046875,-29.296875
1644477868204.2812,-86.42578125,-39.55078125,-291.9921875,-51.7578125,-21.484375
1644477868208.1875,-69.3359375,-39.0625,-155.76171875,-32.71484375,3.41796875
1644477868212.0938,-43.9453125,-41.50390625,-22.4609375,-18.5546875,271.97265625
1644477868216,-62.5,-50.29296875,-309.5703125,-31.73828125,453.125
1644477868219.9062,-86.42578125,-56.640625,42.48046875,-49.31640625,35.15625
1644477868223.8125,-76.66015625,-54.6875,23.4375,-43.9453125,-138.18359375
1644477868227.7188,-56.640625,-43.9453125,-94.23828125,-40.52734375,-3.90625
1644477868231.625,-19.53125,-35.15625,354.98046875,-33.69140625,-53.7109375
1644477868235.5312,-10.25390625,-30.76171875,505.859375,-35.15625,-64.453125
1644477868239.4375,-22.4609375,-26.3671875,153.3203125,-41.015625,-27.34375
1644477868243.3438,-39.0625,-27.34375,-289.55078125,-52.24609375,-58.10546875
1644477868247.25,-32.2265625,-27.83203125,-150.87890625,-48.828125,-99.609375
1644477868251.1562,-3.41796875,-26.3671875,179.6875,-22.94921875,33.69140625
1644477868255.0625,1.953125,-26.85546875,100.09765625,-13.671875,140.13671875
1644477868258.9688,-14.16015625,-21.97265625,-426.7578125,-15.625,258.30078125
1644477868262.875,-36.62109375,-17.08984375,-447.75390625,-35.64453125,65.91796875
1644477868266.7812,-40.0390625,-23.92578125,-114.2578125,-41.50390625,-122.0703125
1644477868270.6875,-13.18359375,-33.69140625,170.41015625,-19.04296875,-12.6953125
1644477868274.5938,4.39453125,-37.59765625,244.140625,-0.48828125,33.203125
1644477868278.5,-11.71875,-30.76171875,220.21484375,-24.4140625,-99.609375
1644477868282.4062,-40.0390625,-22.4609375,-39.55078125,-50.29296875,-151.3671875
1644477868286.3125,-41.015625,-16.6015625,-202.63671875,-34.66796875,-53.22265625
1644477868290.2188,-5.859375,-22.4609375,150.87890625,-16.11328125,-37.59765625
1644477868294.125,14.16015625,-30.76171875,430.17578125,-8.30078125,-69.82421875
1644477868298.0312,6.34765625,-24.90234375,74.70703125,4.39453125,41.50390625
1644477868301.9375,-30.76171875,-31.73828125,-383.30078125,-10.25390625,97.16796875
1644477868305.8438,-54.6875,-41.50390625,-231.4453125,-32.71484375,-62.5
1644477868309.75,-20.5078125,-31.25,248.046875,-7.8125,-106.93359375
1644477868313.6562,3.41796875,-29.78515625,460.9375,10.25390625,-41.50390625
1644477868317.5625,-13.18359375,-35.15625,-94.23828125,-3.41796875,162.109375
1644477868321.4688,-27.34375,-21.97265625,-489.2578125,-11.71875,207.03125
1644477868325.375,-30.76171875,-15.13671875,-217.7734375,-29.78515625,-97.65625
1644477868329.2812,5.37109375,-20.99609375,110.83984375,-20.99609375,-127.44140625
1644477868333.1875,29.296875,-26.3671875,72.75390625,3.41796875,130.859375
1644477868337.0938,-2.9296875,-14.6484375,160.64453125,-10.7421875,33.203125
1644477868341,-33.69140625,-11.71875,105.95703125,-29.296875,-158.69140625
1644477868344.9062,-37.109375,-20.99609375,-296.875,-20.5078125,-63.96484375
1644477868348.8125,-20.01953125,-25.87890625,-513.671875,-13.671875,295.8984375
1644477868352.7188,-9.765625,-26.85546875,62.01171875,-27.34375,191.40625
1644477868356.625,-18.5546875,-31.73828125,464.35546875,-33.69140625,-105.95703125
1644477868360.5312,-50.78125,-32.71484375,55.6640625,-41.015625,-84.9609375
1644477868364.4375,-76.171875,-29.78515625,-188.96484375,-51.7578125,-96.19140625
1644477868368.3438,-43.45703125,-31.25,91.30859375,-29.296875,-131.34765625
1644477868372.25,-5.37109375,-25.87890625,426.26953125,6.34765625,-68.359375
1644477868376.1562,-18.06640625,-20.99609375,225.09765625,-8.7890625,-8.7890625
1644477868380.0625,-41.015625,-17.08984375,-132.8125,-41.50390625,-4.8828125
1644477868383.9688,-40.52734375,-8.7890625,-309.08203125,-32.71484375,-59.5703125
1644477868387.875,-40.52734375,-13.671875,6.8359375,-27.83203125,-130.859375
1644477868391.7812,-27.83203125,-27.34375,72.75390625,-24.4140625,173.33984375
1644477868395.6875,-26.3671875,-26.3671875,-403.3203125,-20.5078125,535.15625
1644477868399.5938,-55.17578125,-22.4609375,-104.98046875,-40.0390625,124.0234375
1644477868403.5,-69.82421875,-30.2734375,12.6953125,-50.29296875,-158.69140625
1644477868407.4062,-57.6171875,-38.0859375,-211.9140625,-36.1328125,-39.0625
1644477868411.3125,-13.18359375,-31.73828125,229.98046875,-10.7421875,-69.3359375
1644477868415.2188,5.859375,-26.3671875,433.10546875,-2.44140625,-110.3515625
1644477868419.125,-33.69140625,-33.69140625,85.44921875,-16.11328125,-62.01171875
1644477868423.0312,-72.75390625,-41.015625,-280.2734375,-31.25,-28.3203125
1644477868426.9375,-62.01171875,-40.0390625,-160.64453125,-41.015625,-111.81640625
1644477868430.8438,-25.87890625,-41.015625,272.94921875,-27.83203125,-126.46484375
1644477868434.75,-2.44140625,-45.8984375,307.12890625,-3.90625,1.953125
1644477868438.6562,-15.13671875,-40.0390625,-95.21484375,-8.7890625,152.34375
1644477868442.5625,-52.24609375,-29.78515625,-372.55859375,-36.1328125,47.8515625
1644477868446.4688,-42.48046875,-24.90234375,-316.40625,-37.59765625,-24.4140625
1644477868450.375,14.6484375,-18.06640625,8.30078125,-1.953125,67.3828125
1644477868454.2812,30.76171875,-20.01953125,-177.734375,16.6015625,341.796875
1644477868458.1875,-16.11328125,-26.3671875,-169.43359375,-16.6015625,177.734375
1644477868462.0938,-51.26953125,-34.1796875,47.36328125,-47.8515625,-166.50390625
1644477868466,-41.50390625,-36.1328125,-112.79296875,-33.203125,-105.46875
1644477868469.9062,-4.39453125,-30.76171875,113.28125,-9.27734375,-88.8671875
1644477868473.8125,19.04296875,-28.80859375,424.31640625,9.27734375,-94.23828125
1644477868477.7188,-1.953125,-23.4375,239.74609375,-1.953125,-91.30859375
1644477868481.625,-27.34375,-22.4609375,-212.890625,-36.1328125,-98.6328125
1644477868485.5312,-11.71875,-17.08984375,-425.78125,-39.0625,-46.38671875
1644477868489.4375,15.13671875,-16.11328125,-91.796875,-16.11328125,19.04296875
1644477868493.3438,1.953125,-27.83203125,357.421875,-7.8125,-54.19921875
1644477868497.25,-20.5078125,-27.83203125,-42.48046875,-10.7421875,104.4921875
1644477868501.1562,-37.109375,-30.76171875,-745.1171875,-13.671875,370.1171875
1644477868505.0625,-42.48046875,-32.2265625,-300.78125,-11.71875,16.11328125
1644477868508.9688,-17.08984375,-22.94921875,229.98046875,-13.671875,-157.2265625
1644477868512.875,-3.90625,-21.484375,267.578125,-8.30078125,-29.296875
1644477868516.7812,-15.625,-28.80859375,281.25,-13.671875,-80.078125
1644477868520.6875,-27.83203125,-29.296875,134.765625,-25.390625,-137.6953125
1644477868524.5938,-36.1328125,-25.390625,-196.77734375,-29.78515625,-151.3671875
1644477868528.5,-24.90234375,-25.390625,-141.6015625,-25.390625,-102.5390625
1644477868532.4062,0.48828125,-22.4609375,154.296875,1.46484375,52.24609375
1644477868536.3125,-17.578125,-25.87890625,150.390625,-6.34765625,78.61328125
1644477868540.2188,-45.41015625,-33.69140625,-91.796875,-32.2265625,18.06640625
1644477868544.125,-51.7578125,-33.203125,-688.4765625,-33.69140625,168.9453125
1644477868548.0312,-29.78515625,-28.3203125,-245.1171875,-21.97265625,29.296875
1644477868551.9375,9.27734375,-22.4609375,504.39453125,-5.859375,-86.9140625
1644477868555.8438,-2.9296875,-24.90234375,252.44140625,-17.578125,0.48828125
1644477868559.75,-32.2265625,-35.15625,-90.33203125,-32.71484375,-3.90625
1644477868563.6562,-37.59765625,-31.73828125,-136.71875,-34.1796875,-105.95703125
1644477868567.5625,-28.3203125,-21.484375,-52.24609375,-30.2734375,-103.515625
1644477868571.4688,9.765625,-14.6484375,62.01171875,-3.41796875,89.35546875
1644477868575.375,20.5078125,-18.06640625,114.74609375,0.9765625,230.46875
1644477868579.2812,-18.06640625,-23.92578125,53.22265625,-19.53125,129.8828125
1644477868583.1875,-52.734375,-23.4375,-222.65625,-34.1796875,62.5
1644477868587.0938,-33.203125,-21.484375,-417.48046875,-12.6953125,194.82421875
1644477868591,5.37109375,-23.92578125,-132.32421875,14.6484375,276.3671875
1644477868594.9062,6.34765625,-20.99609375,403.80859375,3.41796875,18.5546875
1644477868598.8125,-19.04296875,-20.5078125,251.46484375,-15.625,-98.14453125
1644477868602.7188,-33.203125,-21.97265625,-190.91796875,-20.5078125,-24.4140625
1644477868606.625,-21.484375,-23.92578125,-97.16796875,-10.25390625,-41.9921875
1644477868610.5312,0.48828125,-29.78515625,327.63671875,-0.48828125,-71.2890625
1644477868614.4375,12.6953125,-31.25,317.3828125,1.953125,41.9921875
1644477868618.3438,-3.41796875,-28.80859375,-55.6640625,-6.34765625,169.43359375
1644477868622.25,-37.109375,-25.87890625,-177.734375,-32.71484375,-0.9765625
1644477868626.1562,-41.015625,-25.87890625,-266.11328125,-26.85546875,-67.87109375
1644477868630.0625,-9.27734375,-25.87890625,-86.9140625,-4.39453125,103.515625
1644477868633.9688,8.7890625,-29.296875,-187.5,8.30078125,351.07421875
1644477868637.875,-5.859375,-22.4609375,-66.40625,-2.9296875,175.78125
1644477868641.7812,-34.1796875,-13.18359375,106.93359375,-16.6015625,-128.90625
1644477868645.6875,-36.1328125,-14.16015625,-196.77734375,-19.53125,-77.1484375
1644477868649.5938,-14.16015625,-20.5078125,-77.63671875,-12.6953125,90.33203125
1644477868653.5,13.18359375,-20.01953125,353.02734375,10.25390625,14.6484375
1644477868657.4062,11.23046875,-19.04296875,312.98828125,11.23046875,-97.16796875
1644477868661.3125,-38.57421875,-28.80859375,-133.30078125,-20.99609375,-57.12890625
1644477868665.2188,-58.10546875,-32.71484375,-251.953125,-29.78515625,-86.42578125
1644477868669.125,-18.06640625,-36.62109375,88.8671875,-9.27734375,-139.16015625
1644477868673.0312,25.87890625,-36.1328125,174.8046875,1.953125,0.48828125
1644477868676.9375,6.34765625,-26.85546875,-59.08203125,-13.671875,162.109375
1644477868680.8438,-33.69140625,-24.4140625,-249.51171875,-45.41015625,108.88671875
1644477868684.75,-50.78125,-21.97265625,-214.84375,-65.91796875,-86.42578125
1644477868688.6562,-29.296875,-18.06640625,85.44921875,-50.78125,-196.77734375
1644477868692.5625,2.9296875,-24.4140625,-39.0625,-20.99609375,139.6484375
1644477868696.4688,-18.06640625,-25.390625,-372.0703125,-16.6015625,350.5859375
1644477868700.375,-37.59765625,-19.53125,15.13671875,-24.4140625,-54.19921875
1644477868704.2812,-46.875,-21.97265625,-65.4296875,-34.66796875,-181.640625
1644477868708.1875,-32.2265625,-25.390625,-251.46484375,-20.99609375,22.94921875
1644477868712.0938,7.32421875,-18.5546875,245.60546875,4.39453125,-48.33984375
1644477868716,3.41796875,-9.27734375,399.90234375,-4.8828125,-149.4140625
1644477868719.9062,-32.71484375,-17.08984375,-80.078125,-30.2734375,-42.96875
1644477868723.8125,-64.94140625,-30.76171875,-519.53125,-42.48046875,54.6875
1644477868727.7188,-38.0859375,-27.83203125,-182.6171875,-20.5078125,-95.703125
1644477868731.625,7.8125,-28.3203125,312.5,4.8828125,-98.14453125
1644477868735.5312,23.92578125,-35.15625,170.8984375,14.6484375,111.81640625
1644477868739.4375,14.16015625,-27.83203125,-502.9296875,1.953125,335.9375
1644477868743.3438,-36.1328125,-20.99609375,-466.796875,-39.55078125,145.01953125
1644477868747.25,-41.015625,-6.34765625,29.78515625,-43.45703125,-137.6953125
1644477868751.1562,18.06640625,0,204.1015625,6.34765625,-68.84765625
1644477868755.0625,42.48046875,-11.23046875,328.125,37.109375,-19.04296875
1644477868758.9688,20.99609375,-9.765625,221.6796875,27.83203125,-100.5859375
1644477868762.875,4.39453125,1.953125,-80.078125,12.6953125,-155.2734375
1644477868766.7812,10.7421875,-2.9296875,-354.00390625,15.625,18.5546875
1644477868770.6875,37.59765625,-3.90625,-113.76953125,32.71484375,131.34765625
1644477868774.5938,48.33984375,-3.41796875,373.046875,31.25,-1.953125
1644477868778.5,19.04296875,-2.9296875,284.1796875,9.27734375,-99.12109375
1644477868782.4062,-3.41796875,-3.41796875,-332.03125,-3.41796875,39.0625
1644477868786.3125,3.90625,-12.20703125,-297.36328125,-0.48828125,-3.90625
1644477868790.2188,49.8046875,-4.39453125,296.875,25.390625,-112.79296875
1644477868794.125,76.171875,-1.953125,319.82421875,45.8984375,82.51953125
1644477868798.0312,62.5,-5.37109375,-27.34375,35.15625,148.92578125
1644477868801.9375,39.0625,-3.41796875,-93.75,1.953125,-79.58984375
1644477868805.8438,32.71484375,-1.46484375,32.2265625,8.30078125,-183.10546875
1644477868809.75,76.66015625,-3.41796875,192.87109375,44.43359375,-65.91796875
1644477868813.6562,122.0703125,-1.953125,207.03125,66.89453125,87.40234375
1644477868817.5625,88.37890625,-9.27734375,93.75,63.4765625,64.94140625
1644477868821.4688,59.5703125,-18.5546875,57.6171875,48.828125,-132.8125
1644477868825.375,67.3828125,-15.625,-151.3671875,59.08203125,-121.09375
1644477868829.2812,96.6796875,-14.16015625,-338.8671875,98.14453125,163.57421875
1644477868833.1875,124.0234375,-19.53125,323.73046875,114.2578125,74.70703125
1644477868837.0938,119.140625,-27.34375,524.90234375,107.421875,-83.984375
1644477868841,92.7734375,-31.73828125,-6.34765625,101.5625,-70.3125
1644477868844.9062,78.61328125,-31.25,-189.453125,89.35546875,-115.72265625
1644477868848.8125,103.02734375,-34.1796875,61.03515625,103.02734375,-81.54296875
1644477868852.7188,132.8125,-44.921875,267.08984375,120.1171875,38.0859375
1644477868856.625,116.69921875,-49.8046875,90.33203125,113.76953125,66.40625
1644477868860.5312,78.61328125,-41.50390625,-212.40234375,93.26171875,66.40625
1644477868864.4375,64.453125,-35.15625,-319.3359375,74.70703125,-29.78515625
1644477868868.3438,80.078125,-40.0390625,-11.71875,75.1953125,-23.4375
1644477868872.25,115.234375,-41.9921875,114.2578125,100.09765625,227.05078125
1644477868876.1562,120.1171875,-40.52734375,-126.953125,112.3046875,331.0546875
1644477868880.0625,94.7265625,-38.0859375,150.390625,95.703125,-36.1328125
1644477868883.9688,82.51953125,-36.1328125,24.4140625,98.14453125,-145.5078125
1644477868887.875,91.30859375,-40.0390625,-114.74609375,100.5859375,-72.265625
1644477868891.7812,113.28125,-42.96875,332.03125,105.95703125,-85.44921875
1644477868895.6875,119.140625,-40.52734375,455.56640625,123.53515625,-78.125
1644477868899.5938,96.6796875,-37.59765625,106.4453125,112.79296875,-58.10546875
1644477868903.5,71.77734375,-35.64453125,-319.3359375,83.984375,-69.82421875
1644477868907.4062,74.21875,-37.109375,-261.71875,79.1015625,-34.1796875
1644477868911.3125,106.4453125,-35.64453125,139.6484375,95.21484375,57.6171875
1644477868915.2188,115.234375,-43.45703125,163.57421875,104.98046875,107.421875
1644477868919.125,88.37890625,-52.734375,-470.21484375,99.609375,284.1796875
1644477868923.0312,54.6875,-49.31640625,-544.43359375,76.66015625,98.14453125
1644477868926.9375,50.29296875,-40.52734375,-40.52734375,61.03515625,-222.65625
1644477868930.8438,84.9609375,-30.76171875,273.92578125,81.54296875,-76.171875
1644477868934.75,104.00390625,-25.390625,412.109375,96.6796875,42.96875
1644477868938.6562,73.73046875,-39.55078125,256.8359375,79.1015625,-67.87109375
1644477868942.5625,32.2265625,-57.12890625,-101.07421875,55.17578125,-156.25
1644477868946.4688,31.73828125,-52.734375,-307.6171875,41.50390625,-117.1875
1644477868950.375,56.15234375,-37.59765625,37.109375,49.31640625,-69.3359375
1644477868954.2812,64.453125,-33.69140625,182.6171875,55.6640625,42.96875
1644477868958.1875,41.9921875,-36.62109375,-99.12109375,45.41015625,73.2421875
1644477868962.0938,3.41796875,-38.0859375,-461.9140625,34.66796875,4.39453125
1644477868966,5.859375,-28.80859375,-439.94140625,52.24609375,-43.9453125
1644477868969.9062,48.33984375,-25.87890625,30.76171875,63.4765625,-39.55078125
1644477868973.8125,68.84765625,-28.80859375,271.484375,33.203125,-39.0625
1644477868977.7188,44.921875,-28.3203125,-94.7265625,11.23046875,45.8984375
1644477868981.625,1.46484375,-31.73828125,-255.859375,-1.46484375,-22.94921875
1644477868985.5312,-6.8359375,-34.66796875,-172.36328125,0.48828125,-153.3203125
1644477868989.4375,20.99609375,-31.73828125,-49.8046875,25.87890625,-98.6328125
1644477868993.3438,36.62109375,-27.83203125,-98.14453125,34.1796875,123.53515625
1644477868997.25,27.83203125,-22.4609375,20.5078125,22.94921875,38.0859375
1644477869001.1562,13.18359375,-20.5078125,-170.8984375,23.92578125,-41.50390625
1644477869005.0625,9.765625,-24.90234375,-477.05078125,23.4375,-12.6953125
1644477869008.9688,31.25,-30.2734375,-601.5625,40.52734375,291.50390625
1644477869012.875,58.59375,-26.3671875,-328.125,59.08203125,442.3828125
1644477869016.7812,55.17578125,-26.3671875,274.4140625,49.8046875,47.36328125
1644477869020.6875,20.01953125,-33.203125,80.56640625,21.97265625,-74.70703125
1644477869024.5938,6.34765625,-31.25,-318.84765625,6.34765625,-20.99609375
1644477869028.5,26.3671875,-27.83203125,-47.36328125,24.90234375,-28.3203125
1644477869032.4062,49.8046875,-28.80859375,398.92578125,46.38671875,-99.12109375
1644477869036.3125,45.8984375,-34.1796875,217.28515625,35.15625,-23.92578125
1644477869040.2188,6.34765625,-37.59765625,-122.0703125,14.16015625,-35.15625
1644477869044.125,-21.484375,-32.71484375,-204.58984375,7.8125,-191.89453125
1644477869048.0312,8.30078125,-26.85546875,-163.57421875,21.97265625,-59.5703125
1644477869051.9375,60.05859375,-24.90234375,-44.921875,34.1796875,156.73828125
1644477869055.8438,50.29296875,-22.4609375,147.4609375,20.5078125,73.2421875
1644477869059.75,13.18359375,-22.4609375,148.4375,3.90625,-71.2890625
1644477869063.6562,-6.34765625,-21.484375,-138.18359375,-2.9296875,-146.484375
1644477869067.5625,8.30078125,-21.484375,-478.02734375,15.13671875,99.609375
1644477869071.4688,34.1796875,-24.4140625,-390.625,32.71484375,380.859375
1644477869075.375,33.203125,-16.11328125,283.203125,29.296875,47.36328125
1644477869079.2812,8.30078125,-15.625,211.9140625,22.4609375,-150.87890625
1644477869083.1875,-15.625,-18.06640625,-322.75390625,10.7421875,-88.8671875
1644477869087.0938,-3.90625,-19.53125,-254.8828125,14.6484375,-104.00390625
1644477869091,31.73828125,-21.97265625,294.921875,39.55078125,-80.56640625
1644477869094.9062,38.0859375,-21.97265625,262.6953125,44.921875,93.75
1644477869098.8125,14.16015625,-19.53125,-188.4765625,27.34375,113.76953125
1644477869102.7188,-20.99609375,-21.484375,-265.13671875,-8.7890625,-104.4921875
1644477869106.625,-12.20703125,-15.13671875,-40.52734375,-20.01953125,-212.890625
1644477869110.5312,50.78125,-2.9296875,123.53515625,19.53125,-111.328125
1644477869114.4375,62.98828125,-15.13671875,-192.3828125,42.48046875,236.81640625
1644477869118.3438,4.39453125,-22.94921875,-54.19921875,12.6953125,74.21875
1644477869122.25,-35.64453125,-17.08984375,26.3671875,-17.578125,-229.00390625
1644477869126.1562,-25.87890625,-23.92578125,-219.7265625,-15.13671875,-97.65625
1644477869130.0625,-5.859375,-33.203125,10.25390625,1.46484375,-38.0859375
1644477869133.9688,7.32421875,-30.2734375,406.25,-3.41796875,-119.140625
1644477869137.875,-9.765625,-22.4609375,306.15234375,-22.94921875,-139.16015625
1644477869141.7812,-40.52734375,-23.92578125,-296.875,-25.87890625,26.3671875
1644477869145.6875,-55.6640625,-30.2734375,-463.37890625,-26.85546875,129.8828125
1644477869149.5938,-38.57421875,-28.3203125,24.90234375,-32.2265625,0
1644477869153.5,-13.671875,-25.390625,420.8984375,-15.13671875,-62.98828125
1644477869157.4062,-32.2265625,-28.80859375,-26.3671875,-4.8828125,126.953125
1644477869161.3125,-80.56640625,-33.203125,-454.58984375,-44.43359375,140.13671875
1644477869165.2188,-84.9609375,-37.59765625,-91.30859375,-60.05859375,-152.83203125
1644477869169.125,-41.50390625,-39.0625,195.3125,-34.66796875,-96.19140625
1644477869173.0312,-13.18359375,-33.203125,308.10546875,-14.6484375,42.48046875
1644477869176.9375,-18.06640625,-31.73828125,303.7109375,-12.20703125,-31.25
1644477869180.8438,-53.22265625,-33.69140625,62.5,-34.66796875,-125.48828125
1644477869184.75,-87.890625,-35.64453125,-202.63671875,-59.5703125,-92.7734375
1644477869188.6562,-65.91796875,-40.0390625,-196.2890625,-48.828125,94.7265625
1644477869192.5625,-24.4140625,-40.52734375,77.1484375,-17.578125,145.5078125
1644477869196.4688,-21.484375,-39.55078125,288.57421875,-16.11328125,10.7421875
1644477869200.375,-42.96875,-40.52734375,-44.43359375,-31.25,-26.85546875
1644477869204.2812,-59.08203125,-46.875,-814.453125,-26.3671875,312.98828125
1644477869208.1875,-36.1328125,-48.828125,-401.85546875,-20.99609375,225.5859375
1644477869212.0938,8.30078125,-46.875,429.19921875,-14.16015625,-64.94140625
1644477869216,5.859375,-41.9921875,297.8515625,-5.859375,3.90625
1644477869219.9062,-21.97265625,-39.0625,-9.27734375,-16.6015625,-18.5546875
1644477869223.8125,-35.15625,-34.66796875,-130.859375,-25.87890625,-109.375
1644477869227.7188,-10.25390625,-28.80859375,-28.80859375,-7.32421875,-108.3984375
1644477869231.625,3.41796875,-38.0859375,123.53515625,3.90625,8.30078125
1644477869235.5312,-11.23046875,-37.59765625,41.015625,-11.23046875,183.10546875
1644477869239.4375,-45.41015625,-36.62109375,-139.16015625,-28.3203125,128.90625
1644477869243.3438,-71.77734375,-43.9453125,-258.30078125,-40.52734375,-103.515625
1644477869247.25,-39.0625,-40.52734375,-479.4921875,-18.06640625,52.24609375
1644477869251.1562,3.41796875,-30.2734375,-241.69921875,20.99609375,260.7421875
1644477869255.0625,7.32421875,-28.3203125,376.953125,34.1796875,38.57421875
1644477869258.9688,-20.5078125,-36.62109375,145.99609375,-3.41796875,31.73828125
1644477869262.875,-42.96875,-34.1796875,-410.64453125,-46.875,151.85546875
1644477869266.7812,-40.52734375,-26.85546875,-245.60546875,-31.25,-29.296875
1644477869270.6875,-18.06640625,-30.76171875,212.890625,-10.7421875,-119.62890625
1644477869274.5938,-8.7890625,-37.109375,201.171875,-10.7421875,-62.98828125
1644477869278.5,-23.92578125,-31.73828125,-159.1796875,-14.16015625,10.25390625
1644477869282.4062,-35.15625,-27.34375,-411.1328125,-34.1796875,17.08984375
1644477869286.3125,-12.6953125,-29.78515625,-396.484375,-24.90234375,-1.46484375
1644477869290.2188,22.94921875,-22.4609375,-90.33203125,15.625,28.80859375
1644477869294.125,31.25,-18.06640625,118.65234375,23.4375,70.80078125
1644477869298.0312,-3.90625,-24.90234375,117.67578125,1.46484375,-56.640625
1644477869301.9375,-35.15625,-20.99609375,-77.63671875,-5.37109375,-185.05859375
1644477869305.8438,-28.3203125,-20.5078125,-326.66015625,-2.44140625,-32.2265625
1644477869309.75,-2.9296875,-26.3671875,-180.6640625,5.859375,123.53515625
1644477869313.6562,14.16015625,-25.390625,280.76171875,18.5546875,-36.1328125
1644477869317.5625,4.8828125,-27.34375,185.05859375,16.11328125,-95.21484375
1644477869321.4688,-28.80859375,-34.66796875,-309.5703125,0,3.41796875
1644477869325.375,-38.0859375,-34.66796875,-355.46875,-1.46484375,5.859375
1644477869329.2812,-8.30078125,-36.1328125,-42.48046875,16.11328125,35.64453125
1644477869333.1875,20.5078125,-32.2265625,191.40625,26.85546875,69.3359375
1644477869337.0938,6.8359375,-29.296875,-41.015625,22.94921875,131.34765625
1644477869341,-31.73828125,-34.1796875,-719.23828125,1.953125,389.6484375
1644477869344.9062,-39.55078125,-32.71484375,-506.34765625,-18.5546875,153.80859375
1644477869348.8125,-6.8359375,-30.76171875,209.9609375,2.44140625,-122.55859375
1644477869352.7188,20.99609375,-37.109375,341.30859375,22.4609375,-30.76171875
1644477869356.625,19.04296875,-31.73828125,338.37890625,17.08984375,-62.01171875
1644477869360.5312,-6.34765625,-25.87890625,206.54296875,0.9765625,-126.953125
1644477869364.4375,-21.97265625,-26.85546875,-153.3203125,-12.6953125,-132.8125
1644477869368.3438,1.46484375,-20.99609375,-127.9296875,6.34765625,-66.89453125
1644477869372.25,25.390625,-19.04296875,286.1328125,22.94921875,-12.20703125
1644477869376.1562,12.6953125,-22.94921875,125.48828125,16.6015625,17.08984375
1644477869380.0625,-19.53125,-27.34375,-199.21875,-5.37109375,69.82421875
1644477869383.9688,-41.50390625,-30.76171875,-762.20703125,-20.01953125,333.984375
1644477869387.875,-24.90234375,-24.4140625,-498.53515625,-8.7890625,196.2890625
1644477869391.7812,21.484375,-18.5546875,420.41015625,13.671875,-109.86328125
1644477869395.6875,24.4140625,-23.92578125,369.62890625,22.94921875,-50.29296875
1644477869399.5938,-12.6953125,-27.34375,73.73046875,-1.953125,-51.7578125
1644477869403.5,-34.1796875,-20.5078125,-68.359375,-26.3671875,-127.9296875
1644477869407.4062,-23.4375,-20.01953125,-15.625,-19.04296875,-139.16015625
1644477869411.3125,5.37109375,-24.90234375,179.6875,2.44140625,-8.30078125
1644477869415.2188,7.8125,-24.4140625,264.6484375,2.9296875,45.8984375
1644477869419.125,-16.6015625,-34.1796875,137.6953125,-5.37109375,-31.25
1644477869423.0312,-37.109375,-40.0390625,-246.58203125,-7.8125,-70.3125
1644477869426.9375,-22.4609375,-27.34375,-517.578125,-2.44140625,113.76953125
1644477869430.8438,15.625,-16.11328125,-240.234375,14.16015625,269.53125
1644477869434.75,25.390625,-19.53125,315.91796875,16.11328125,36.62109375
1644477869438.6562,9.765625,-32.71484375,117.67578125,13.671875,-62.98828125
1644477869442.5625,-7.8125,-35.15625,-372.0703125,-2.44140625,62.98828125
1644477869446.4688,-17.578125,-21.97265625,-197.75390625,-14.6484375,-38.57421875
1644477869450.375,14.6484375,-19.53125,335.9375,0.48828125,-136.71875
1644477869454.2812,50.78125,-16.11328125,378.41796875,21.97265625,-47.36328125
1644477869458.1875,24.4140625,-19.53125,82.51953125,15.625,-10.25390625
1644477869462.0938,-17.578125,-35.64453125,-92.7734375,3.90625,-76.66015625
1644477869466,-24.90234375,-33.203125,-92.7734375,3.41796875,-138.18359375
1644477869469.9062,-1.953125,-26.3671875,-16.6015625,-0.48828125,34.66796875
1644477869473.8125,13.671875,-28.3203125,-214.84375,11.23046875,454.58984375
1644477869477.7188,7.32421875,-25.87890625,-41.015625,12.20703125,237.79296875
1644477869481.625,-17.08984375,-25.87890625,71.2890625,-4.39453125,-147.94921875
1644477869485.5312,-32.71484375,-29.296875,-206.54296875,-11.71875,-129.8828125
1644477869489.4375,-5.37109375,-29.296875,-1.46484375,10.25390625,-38.57421875
1644477869493.3438,23.4375,-25.390625,263.671875,35.64453125,60.05859375
1644477869497.25,12.20703125,-24.4140625,185.546875,19.04296875,-15.625
1644477869501.1562,-25.390625,-29.78515625,-118.1640625,-6.34765625,-55.6640625
1644477869505.0625,-42.48046875,-32.2265625,-367.1875,-13.18359375,-37.59765625
1644477869508.9688,-11.71875,-31.25,60.05859375,-5.859375,-100.09765625
1644477869512.875,20.99609375,-26.85546875,407.2265625,13.18359375,-41.015625
1644477869516.7812,14.16015625,-26.3671875,105.95703125,18.06640625,106.93359375
1644477869520.6875,-17.08984375,-31.73828125,-255.859375,-8.30078125,35.15625
1644477869524.5938,-37.109375,-33.69140625,-212.890625,-38.0859375,-103.02734375
1644477869528.5,-2.9296875,-31.25,38.57421875,-29.78515625,-86.42578125
1644477869532.4062,27.34375,-29.78515625,54.6875,-1.46484375,76.171875
1644477869536.3125,5.859375,-32.2265625,140.13671875,-0.48828125,29.296875
1644477869540.2188,-29.78515625,-30.2734375,95.21484375,-22.94921875,-152.34375
1644477869544.125,-42.96875,-28.80859375,-218.26171875,-25.390625,-151.85546875
1644477869548.0312,-11.71875,-28.3203125,-478.515625,-10.25390625,107.421875
1644477869551.9375,21.484375,-25.87890625,-91.796875,6.34765625,153.80859375
1644477869555.8438,13.18359375,-29.78515625,271.97265625,-0.48828125,11.71875
1644477869559.75,-7.8125,-28.80859375,20.01953125,-13.18359375,-38.0859375
1644477869563.6562,-18.06640625,-30.2734375,-633.7890625,-2.44140625,259.27734375
1644477869567.5625,-6.34765625,-32.2265625,-419.43359375,-4.8828125,170.41015625
1644477869571.4688,13.18359375,-21.484375,360.3515625,-7.8125,-132.8125
1644477869575.375,22.4609375,-22.4609375,340.33203125,-2.44140625,-14.16015625
1644477869579.2812,15.13671875,-32.71484375,-173.33984375,-7.32421875,129.8828125
1644477869583.1875,-16.11328125,-37.109375,-166.50390625,-20.01953125,-79.58984375
1644477869587.0938,-10.7421875,-43.9453125,17.08984375,-10.7421875,-188.4765625
1644477869591,22.94921875,-47.36328125,148.4375,22.94921875,-64.453125
1644477869594.9062,26.3671875,-45.8984375,252.44140625,29.296875,-42.48046875
1644477869598.8125,-0.48828125,-39.0625,161.62109375,0.9765625,-104.00390625
1644477869602.7188,-29.78515625,-31.73828125,-118.1640625,-21.97265625,-163.0859375
1644477869606.625,-10.7421875,-24.4140625,-355.95703125,-15.13671875,-33.69140625
1644477869610.5312,38.0859375,-19.53125,-151.85546875,15.625,105.95703125
1644477869614.4375,44.43359375,-27.83203125,144.53125,26.85546875,59.08203125
1644477869618.3438,11.23046875,-40.52734375,88.8671875,3.90625,29.78515625
1644477869622.25,-15.13671875,-42.96875,-430.6640625,-4.8828125,101.07421875
1644477869626.1562,-14.6484375,-33.69140625,-770.5078125,-3.41796875,302.24609375
1644477869630.0625,8.30078125,-27.83203125,101.5625,-5.37109375,42.96875
1644477869633.9688,30.76171875,-26.3671875,547.36328125,16.11328125,-108.3984375
1644477869637.875,17.578125,-31.73828125,192.3828125,16.6015625,0.48828125
1644477869641.7812,-13.18359375,-36.62109375,-2.44140625,-3.90625,-85.9375
1644477869645.6875,-19.53125,-36.1328125,-84.9609375,-10.25390625,-190.4296875
1644477869649.5938,7.32421875,-36.1328125,71.77734375,7.8125,-106.93359375
1644477869653.5,36.62109375,-32.2265625,232.421875,25.390625,18.06640625
1644477869657.4062,20.99609375,-38.57421875,102.05078125,5.859375,82.51953125
1644477869661.3125,-13.671875,-46.875,-217.28515625,-25.87890625,37.109375
1644477869665.2188,-32.71484375,-47.36328125,-326.66015625,-22.4609375,-18.5546875
1644477869669.125,-15.13671875,-42.48046875,-74.70703125,6.8359375,37.109375
1644477869673.0312,13.671875,-37.109375,229.98046875,24.90234375,34.66796875
1644477869676.9375,7.32421875,-31.25,358.3984375,22.4609375,-62.01171875
1644477869680.8438,-16.11328125,-23.4375,-43.9453125,0.9765625,22.94921875
1644477869684.75,-27.83203125,-20.99609375,-689.453125,-24.90234375,228.02734375
1644477869688.6562,-15.13671875,-22.4609375,-114.74609375,-19.04296875,64.453125
1644477869692.5625,15.13671875,-23.92578125,517.578125,-0.48828125,-81.0546875
1644477869696.4688,15.13671875,-23.92578125,170.8984375,3.90625,43.9453125
1644477869700.375,-17.578125,-20.99609375,-208.0078125,-13.18359375,96.6796875
1644477869704.2812,-38.0859375,-20.5078125,-296.38671875,-25.87890625,-74.70703125
1644477869708.1875,-20.5078125,-20.01953125,-168.9453125,-11.71875,-37.59765625
1644477869712.0938,18.06640625,-16.11328125,70.3125,15.13671875,196.77734375
1644477869716,16.11328125,-20.99609375,213.8671875,14.6484375,135.25390625
1644477869719.9062,-8.30078125,-24.90234375,186.5234375,-8.7890625,-137.6953125
1644477869723.8125,-26.85546875,-26.3671875,-100.09765625,-23.92578125,-187.5
1644477869727.7188,-15.13671875,-25.390625,-386.23046875,-11.23046875,72.75390625
1644477869731.625,13.671875,-24.4140625,5.859375,2.9296875,145.99609375
1644477869735.5312,15.13671875,-21.97265625,458.984375,2.9296875,-78.61328125
1644477869739.4375,0.48828125,-19.04296875,119.140625,-1.953125,-91.796875
1644477869743.3438,-25.390625,-22.94921875,-458.984375,-11.71875,26.85546875
1644477869747.25,-21.484375,-21.97265625,-220.703125,-13.671875,-49.8046875
1644477869751.1562,10.7421875,-26.3671875,194.3359375,4.39453125,-17.578125
1644477869755.0625,14.16015625,-32.71484375,116.2109375,10.25390625,111.81640625
1644477869758.9688,-5.859375,-30.2734375,-61.03515625,-13.671875,82.03125
1644477869762.875,-35.64453125,-34.66796875,-160.15625,-32.71484375,-106.93359375
1644477869766.7812,-29.296875,-40.0390625,-78.125,-16.11328125,-231.4453125
1644477869770.6875,20.5078125,-28.3203125,92.7734375,7.32421875,-68.359375
1644477869774.5938,15.13671875,-18.06640625,-100.5859375,-1.953125,242.1875
1644477869778.5,-18.5546875,-14.6484375,34.66796875,-20.01953125,27.34375
1644477869782.4062,-24.4140625,-12.20703125,-5.37109375,-21.97265625,-166.015625
1644477869786.3125,-4.39453125,-16.6015625,-276.85546875,-7.8125,-1.953125
1644477869790.2188,27.34375,-24.4140625,41.9921875,21.484375,76.171875
1644477869794.125,37.59765625,-28.80859375,389.16015625,37.109375,37.59765625
1644477869798.0312,19.53125,-25.390625,132.32421875,15.13671875,35.15625
1644477869801.9375,-10.7421875,-21.97265625,-493.1640625,-20.99609375,134.765625
1644477869805.8438,-11.23046875,-17.578125,-910.64453125,-20.99609375,292.48046875
1644477869809.75,21.484375,-11.23046875,-19.53125,-11.23046875,51.7578125
1644477869813.6562,35.15625,-15.625,514.6484375,-5.859375,-105.95703125
1644477869817.5625,22.94921875,-20.99609375,117.67578125,0.48828125,-36.1328125
1644477869821.4688,-6.8359375,-20.01953125,-49.8046875,-5.859375,-111.81640625
1644477869825.375,-23.92578125,-11.23046875,-128.90625,-17.578125,-196.77734375
1644477869829.2812,7.8125,1.46484375,54.6875,0.48828125,-89.35546875
1644477869833.1875,29.78515625,1.46484375,225.5859375,22.4609375,39.55078125
1644477869837.0938,18.06640625,2.9296875,267.08984375,15.13671875,24.90234375
1644477869841,-7.8125,5.859375,42.48046875,6.8359375,-67.3828125
1644477869844.9062,-28.3203125,0.48828125,-446.2890625,1.46484375,-56.640625
1644477869848.8125,-4.8828125,-3.41796875,-382.8125,1.953125,164.0625
1644477869852.7188,25.390625,-0.48828125,111.81640625,17.08984375,139.16015625
1644477869856.625,16.11328125,3.41796875,279.296875,24.4140625,-43.45703125
1644477869860.5312,-13.18359375,-1.953125,-34.1796875,-4.39453125,-61.5234375
1644477869864.4375,-32.2265625,-2.9296875,-380.37109375,-28.80859375,-9.27734375
1644477869868.3438,-14.6484375,0.9765625,-62.5,-7.8125,-58.10546875
1644477869872.25,15.13671875,3.41796875,380.859375,19.04296875,-75.1953125
1644477869876.1562,20.5078125,6.34765625,143.5546875,11.23046875,59.5703125
1644477869880.0625,-6.34765625,6.34765625,-371.58203125,-5.37109375,151.85546875
1644477869883.9688,-31.25,3.41796875,-306.15234375,-15.625,-44.43359375
1644477869887.875,-15.13671875,-1.953125,49.8046875,-5.859375,-129.8828125
1644477869891.7812,18.06640625,-9.765625,31.73828125,9.765625,108.3984375
1644477869895.6875,12.20703125,-13.671875,-410.15625,15.13671875,453.61328125
1644477869899.5938,-17.08984375,-10.25390625,-83.0078125,-7.32421875,111.81640625
1644477869903.5,-34.1796875,-11.23046875,-68.84765625,-34.66796875,-168.9453125
1644477869907.4062,-20.5078125,-12.20703125,-318.359375,-23.92578125,43.9453125
1644477869911.3125,14.16015625,-4.8828125,189.453125,-6.34765625,30.2734375
1644477869915.2188,14.6484375,-4.39453125,391.6015625,-4.39453125,-98.14453125
1644477869919.125,-16.11328125,-12.6953125,107.91015625,-13.18359375,-92.7734375
1644477869923.0312,-39.55078125,-13.671875,-439.94140625,-28.3203125,35.15625
1644477869926.9375,-39.55078125,-8.7890625,-269.53125,-41.015625,-43.45703125
1644477869930.8438,-5.859375,-10.25390625,304.6875,-26.3671875,-120.1171875
1644477869934.75,11.23046875,-12.6953125,286.1328125,-5.37109375,-25.390625
1644477869938.6562,-16.6015625,-12.20703125,-167.48046875,-13.18359375,90.8203125
1644477869942.5625,-44.921875,-14.6484375,-423.828125,-35.64453125,42.96875
1644477869946.4688,-41.50390625,-18.06640625,-182.6171875,-35.64453125,-128.41796875
1644477869950.375,-10.25390625,-16.11328125,50.29296875,-9.765625,-95.21484375
1644477869954.2812,13.18359375,-15.625,-174.8046875,6.8359375,190.4296875
1644477869958.1875,-6.34765625,-18.06640625,34.66796875,-4.8828125,31.25
1644477869962.0938,-41.50390625,-19.04296875,-14.6484375,-27.34375,-143.5546875
1644477869966,-46.38671875,-20.01953125,-352.5390625,-26.85546875,-62.98828125
1644477869969.9062,-3.90625,-16.11328125,-8.7890625,-2.9296875,-9.765625
1644477869973.8125,16.11328125,-13.18359375,422.36328125,11.23046875,-25.87890625
1644477869977.7188,-6.8359375,-17.578125,271.484375,-2.44140625,-68.84765625
1644477869981.625,-40.0390625,-21.484375,-249.0234375,-21.97265625,-48.33984375
1644477869985.5312,-49.8046875,-19.04296875,-476.07421875,-27.83203125,-26.85546875
1644477869989.4375,-19.04296875,-19.53125,-112.79296875,-17.08984375,67.3828125
1644477869993.3438,11.23046875,-18.06640625,389.6484375,1.46484375,50.78125
1644477869997.25,7.8125,-12.20703125,17.578125,14.16015625,155.2734375
1644477870001.1562,-27.83203125,-13.671875,-544.921875,-6.34765625,258.7890625
1644477870005.0625,-40.52734375,-10.7421875,-164.0625,-25.87890625,-52.24609375
1644477870008.9688,-5.859375,-10.7421875,151.3671875,-11.71875,-101.07421875
1644477870012.875,15.13671875,-14.6484375,175.29296875,7.32421875,67.87109375
1644477870016.7812,0.48828125,-16.11328125,272.94921875,1.46484375,38.57421875
1644477870020.6875,-32.71484375,-19.53125,31.25,-20.99609375,-78.61328125
1644477870024.5938,-50.78125,-22.94921875,-387.20703125,-41.015625,-31.25
1644477870028.5,-21.484375,-23.4375,-347.65625,-25.390625,104.98046875
1644477870032.4062,0.9765625,-22.94921875,86.42578125,0.48828125,91.30859375
1644477870036.3125,-12.20703125,-22.4609375,220.703125,-14.16015625,74.70703125
1644477870040.2188,-38.57421875,-21.484375,-104.98046875,-36.1328125,62.01171875
1644477870044.125,-61.5234375,-21.484375,-657.2265625,-38.57421875,220.21484375
1644477870048.0312,-49.8046875,-22.4609375,-226.07421875,-40.0390625,85.9375
1644477870051.9375,-8.7890625,-19.04296875,486.81640625,-23.92578125,-74.70703125
1644477870055.8438,-12.20703125,-20.01953125,306.15234375,-11.23046875,-1.953125
1644477870059.75,-38.57421875,-20.01953125,-5.37109375,-22.94921875,-44.43359375
1644477870063.6562,-53.7109375,-14.16015625,-119.62890625,-30.76171875,-121.09375
1644477870067.5625,-36.1328125,-13.18359375,-44.921875,-23.4375,-107.91015625
1644477870071.4688,-0.48828125,-15.13671875,180.6640625,-5.859375,35.64453125
1644477870075.375,-1.46484375,-19.04296875,242.67578125,-2.44140625,109.375
1644477870079.2812,-26.85546875,-19.04296875,-132.32421875,-15.13671875,94.7265625
1644477870083.1875,-49.8046875,-19.53125,-383.30078125,-31.25,24.90234375
1644477870087.0938,-30.2734375,-26.3671875,-503.41796875,-32.71484375,196.77734375
1644477870091,0,-27.83203125,-428.7109375,-17.578125,478.02734375
1644477870094.9062,-0.48828125,-24.4140625,276.3671875,-17.08984375,162.59765625
1644477870098.8125,-22.4609375,-23.4375,327.1484375,-36.62109375,-55.17578125
1644477870102.7188,-35.64453125,-19.04296875,-187.01171875,-40.0390625,-1.953125
1644477870106.625,-26.3671875,-22.4609375,-125,-29.296875,-60.546875
1644477870110.5312,-5.37109375,-34.66796875,296.38671875,-27.34375,-84.9609375
1644477870114.4375,-10.25390625,-38.0859375,339.84375,-15.13671875,1.953125
1644477870118.3438,-27.34375,-33.203125,46.875,-13.18359375,54.19921875
1644477870122.25,-42.96875,-25.87890625,-167.96875,-26.85546875,-56.640625
1644477870126.1562,-53.22265625,-27.83203125,-271.97265625,-39.0625,-17.578125
1644477870130.0625,-29.78515625,-33.203125,-92.28515625,-24.90234375,217.28515625
1644477870133.9688,-7.32421875,-33.203125,-178.7109375,-4.8828125,452.63671875
1644477870137.875,-26.3671875,-28.3203125,-79.58984375,-27.83203125,248.53515625
1644477870141.7812,-61.5234375,-32.71484375,-32.71484375,-44.43359375,-11.71875
1644477870145.6875,-54.19921875,-38.57421875,-238.76953125,-36.1328125,-19.53125
1644477870149.5938,-16.11328125,-37.59765625,-41.015625,-24.4140625,68.359375
1644477870153.5,5.37109375,-32.71484375,379.8828125,-6.34765625,-6.34765625
1644477870157.4062,1.46484375,-31.73828125,282.2265625,-8.7890625,-107.91015625
1644477870161.3125,-29.296875,-42.96875,-183.10546875,-39.55078125,-88.37890625
1644477870165.2188,-52.734375,-42.48046875,-313.4765625,-47.8515625,-122.0703125
1644477870169.125,-26.85546875,-38.0859375,49.8046875,-30.2734375,-100.09765625
1644477870173.0312,5.37109375,-38.57421875,240.234375,-17.578125,2.9296875
1644477870176.9375,-4.8828125,-39.0625,-125.48828125,-19.04296875,239.74609375
1644477870180.8438,-26.3671875,-35.15625,-516.11328125,-34.66796875,272.4609375
1644477870184.75,-42.48046875,-33.203125,-213.37890625,-52.734375,-69.82421875
1644477870188.6562,-33.69140625,-37.109375,88.37890625,-39.0625,-95.21484375
1644477870192.5625,-3.90625,-37.59765625,203.125,-5.37109375,53.7109375
1644477870196.4688,-8.30078125,-38.57421875,181.640625,-2.44140625,50.78125
1644477870200.375,-36.62109375,-40.0390625,-47.8515625,-27.83203125,-23.4375
1644477870204.2812,-63.4765625,-40.52734375,-238.76953125,-46.875,-86.42578125
1644477870208.1875,-42.48046875,-42.96875,-324.21875,-24.4140625,97.16796875
1644477870212.0938,-2.44140625,-39.55078125,188.4765625,2.9296875,72.265625
1644477870216,-5.859375,-33.69140625,393.06640625,4.39453125,-39.55078125
1644477870219.9062,-30.76171875,-34.1796875,-87.890625,-12.20703125,139.16015625
1644477870223.8125,-52.24609375,-33.69140625,-533.69140625,-30.2734375,212.890625
1644477870227.7188,-41.9921875,-29.78515625,-187.01171875,-33.203125,17.578125
1644477870231.625,-3.41796875,-25.390625,395.99609375,-17.08984375,-50.78125
1644477870235.5312,-0.9765625,-21.97265625,218.26171875,-6.8359375,31.73828125
1644477870239.4375,-25.87890625,-23.92578125,-468.75,-21.97265625,282.2265625
1644477870243.3438,-49.31640625,-23.4375,-386.23046875,-40.0390625,74.70703125
1644477870247.25,-43.45703125,-29.78515625,1.46484375,-45.8984375,-151.85546875
1644477870251.1562,-0.9765625,-33.203125,187.98828125,-31.25,-24.90234375
1644477870255.0625,1.953125,-32.71484375,220.703125,-15.13671875,56.15234375
1644477870258.9688,-25.390625,-31.25,26.3671875,-29.296875,8.30078125
1644477870262.875,-45.8984375,-25.390625,-164.55078125,-51.26953125,-162.109375
1644477870266.7812,-42.48046875,-26.3671875,-366.2109375,-47.8515625,5.859375
