time,TP9,AF7,AF8,TP10,AUX
1656239070884.875,-247.0703125,-306.15234375,42.96875,-177.734375,-39.0625
1656239070888.7812,-387.6953125,-440.4296875,-66.40625,-317.87109375,-86.42578125
1656239070892.6875,-382.8125,-457.51953125,-191.89453125,-315.91796875,0
1656239070896.5938,-376.953125,-455.56640625,-235.3515625,-318.84765625,128.90625
1656239070900.5,-367.67578125,-413.0859375,-150.87890625,-323.73046875,51.26953125
1656239070904.4062,-352.05078125,-399.4140625,-143.5546875,-310.546875,56.640625
1656239070908.3125,-347.65625,-408.69140625,-164.0625,-304.6875,91.796875
1656239070912.2188,-328.125,-409.66796875,-250.48828125,-283.203125,146.484375
1656239070916.125,-317.87109375,-340.8203125,-84.47265625,-253.90625,173.33984375
1656239070920.0312,-303.22265625,-309.08203125,102.05078125,-238.76953125,-80.56640625
1656239070923.9375,-272.4609375,-335.44921875,-76.66015625,-220.703125,-105.46875
1656239070927.8438,-253.41796875,-311.5234375,-109.86328125,-201.171875,7.8125
1656239070931.75,-232.91015625,-275.87890625,44.43359375,-170.8984375,-17.578125
1656239070935.6562,-223.6328125,-272.94921875,51.7578125,-169.43359375,-81.54296875
1656239070939.5625,-248.53515625,-279.296875,-69.82421875,-189.453125,-57.6171875
1656239070943.4688,-247.55859375,-250,-78.125,-179.6875,-3.41796875
1656239070947.375,-229.98046875,-237.3046875,-27.83203125,-157.2265625,-35.15625
1656239070951.2812,-224.12109375,-231.93359375,-28.80859375,-182.6171875,-37.59765625
1656239070955.1875,-221.19140625,-244.140625,-59.08203125,-206.0546875,73.73046875
1656239070959.0938,-223.14453125,-269.04296875,-225.09765625,-189.94140625,384.27734375
1656239070963,-241.69921875,-186.5234375,94.7265625,-208.49609375,239.2578125
1656239070966.9062,-240.72265625,-179.6875,226.07421875,-224.609375,-98.6328125
1656239070970.8125,-239.2578125,-215.33203125,28.80859375,-205.078125,-77.63671875
1656239070974.7188,-239.2578125,-184.5703125,112.3046875,-204.1015625,-74.21875
1656239070978.625,-239.74609375,-164.55078125,131.34765625,-233.3984375,-129.8828125
1656239070982.5312,-268.06640625,-166.50390625,62.5,-260.7421875,-79.1015625
1656239070986.4375,-282.2265625,-216.30859375,-31.73828125,-270.01953125,-24.4140625
1656239070990.3438,-293.45703125,-277.34375,94.23828125,-278.3203125,-64.453125
1656239070994.25,-300.78125,-357.91015625,154.78515625,-276.3671875,-97.16796875
1656239070998.1562,-294.43359375,-387.6953125,13.18359375,-280.76171875,-95.703125
1656239071002.0625,-299.8046875,-388.18359375,-109.375,-290.0390625,139.16015625
1656239071005.9688,-298.828125,-314.94140625,63.96484375,-286.1328125,208.984375
1656239071009.875,-294.43359375,-272.94921875,259.27734375,-278.80859375,-73.2421875
1656239071013.7812,-269.04296875,-298.33984375,130.37109375,-276.3671875,-96.6796875
1656239071017.6875,-270.99609375,-304.19921875,47.36328125,-276.3671875,73.73046875
1656239071021.5938,-272.4609375,-267.08984375,187.98828125,-278.3203125,-26.3671875
1656239071025.5,-239.2578125,-251.46484375,206.0546875,-271.97265625,-169.921875
1656239071029.4062,-212.40234375,-257.32421875,148.92578125,-247.55859375,-120.1171875
1656239071033.3125,-193.84765625,-238.76953125,218.26171875,-227.5390625,-58.10546875
1656239071037.2188,-179.6875,-215.33203125,281.25,-214.84375,-56.15234375
1656239071041.125,-176.26953125,-209.9609375,246.58203125,-200.68359375,-101.5625
1656239071045.0312,-155.2734375,-226.5625,69.82421875,-176.7578125,85.44921875
1656239071048.9375,-149.90234375,-205.078125,21.97265625,-153.3203125,375
1656239071052.8438,-149.90234375,-128.41796875,401.3671875,-172.36328125,150.87890625
1656239071056.75,-116.2109375,-129.39453125,372.55859375,-174.31640625,-77.1484375
1656239071060.6562,-106.4453125,-161.1328125,158.69140625,-148.4375,-5.37109375
1656239071064.5625,-111.81640625,-162.59765625,185.05859375,-139.6484375,2.44140625
1656239071068.4688,-95.21484375,-147.94921875,221.19140625,-140.13671875,-33.203125
1656239071072.375,-75.1953125,-111.328125,290.0390625,-145.99609375,-27.83203125
1656239071076.2812,-79.58984375,-128.41796875,178.22265625,-130.859375,10.7421875
1656239071080.1875,-83.0078125,-107.421875,203.61328125,-118.65234375,18.5546875
1656239071084.0938,-75.1953125,-74.21875,288.0859375,-134.765625,-70.3125
1656239071088,-84.9609375,-87.40234375,200.1953125,-131.8359375,-69.3359375
1656239071091.9062,-57.12890625,-104.00390625,123.046875,-119.62890625,133.7890625
1656239071095.8125,-34.66796875,-94.7265625,167.96875,-105.46875,185.546875
1656239071099.7188,-38.57421875,-60.546875,268.5546875,-90.8203125,40.52734375
1656239071103.625,-50.78125,-76.66015625,228.02734375,-94.7265625,-35.64453125
1656239071107.5312,-65.4296875,-128.41796875,-6.8359375,-93.26171875,135.25390625
1656239071111.4375,-37.59765625,-52.24609375,225.5859375,-66.89453125,121.09375
1656239071115.3438,-9.765625,-43.45703125,359.375,-51.26953125,-125.48828125
1656239071119.25,-63.96484375,-114.74609375,130.37109375,-110.83984375,-117.67578125
1656239071123.1562,-120.1171875,-140.625,24.90234375,-166.50390625,-17.578125
1656239071127.0625,-120.1171875,-145.5078125,-8.30078125,-176.26953125,-16.11328125
1656239071130.9688,-104.4921875,-122.55859375,133.30078125,-164.0625,-138.18359375
1656239071134.875,-81.54296875,-121.58203125,100.09765625,-135.7421875,-83.49609375
1656239071138.7812,-71.77734375,-133.7890625,-149.90234375,-108.88671875,269.04296875
1656239071142.6875,-73.73046875,-96.6796875,61.5234375,-89.84375,183.59375
1656239071146.5938,-55.17578125,-70.3125,250,-84.47265625,-64.453125
1656239071150.5,-40.0390625,-87.890625,78.61328125,-73.73046875,-10.25390625
1656239071154.4062,-17.08984375,-75.68359375,34.1796875,-35.15625,120.60546875
1656239071158.3125,-2.9296875,-36.62109375,222.16796875,4.39453125,-51.7578125
1656239071162.2188,15.625,-62.98828125,143.06640625,19.04296875,-95.21484375
1656239071166.125,57.6171875,-87.40234375,23.4375,0.9765625,16.11328125
1656239071170.0312,70.3125,-56.15234375,138.18359375,29.296875,4.39453125
1656239071173.9375,83.49609375,-49.8046875,198.73046875,63.4765625,-36.1328125
1656239071177.8438,131.8359375,-70.80078125,95.21484375,74.21875,-17.578125
1656239071181.75,136.23046875,-105.46875,-65.91796875,111.328125,25.390625
1656239071185.6562,91.796875,-100.5859375,-0.9765625,122.0703125,64.94140625
1656239071189.5625,132.8125,-88.8671875,73.73046875,145.01953125,108.3984375
1656239071193.4688,206.0546875,-89.35546875,72.75390625,187.01171875,129.39453125
1656239071197.375,187.5,-141.6015625,-127.9296875,189.94140625,274.4140625
1656239071201.2812,152.83203125,-104.4921875,-166.9921875,190.91796875,370.60546875
1656239071205.1875,217.28515625,-13.671875,209.47265625,237.79296875,41.50390625
1656239071209.0938,243.1640625,-73.2421875,111.328125,239.74609375,-76.171875
1656239071213,177.24609375,-107.421875,-74.21875,185.05859375,-14.6484375
1656239071216.9062,175.29296875,-109.375,-9.27734375,181.15234375,-81.54296875
1656239071220.8125,191.40625,-141.11328125,-47.8515625,183.10546875,-68.359375
1656239071224.7188,218.75,-145.99609375,-164.55078125,200.68359375,-21.484375
1656239071228.625,199.70703125,-122.55859375,-136.23046875,225.09765625,0.9765625
1656239071232.5312,167.96875,-117.67578125,-92.7734375,211.42578125,108.3984375
1656239071236.4375,224.12109375,-132.32421875,-137.6953125,232.91015625,66.89453125
1656239071240.3438,192.87109375,-130.859375,-238.28125,205.078125,32.2265625
1656239071244.25,123.53515625,-100.09765625,-437.01171875,170.41015625,390.625
1656239071248.1562,140.13671875,-73.73046875,-101.5625,181.640625,256.34765625
1656239071252.0625,142.08984375,98.6328125,39.0625,169.43359375,-75.68359375
1656239071255.9688,87.40234375,786.1328125,-215.8203125,137.6953125,-18.5546875
1656239071259.875,70.3125,-985.3515625,-241.69921875,116.2109375,-34.1796875
1656239071263.7812,65.4296875,796.875,-222.16796875,98.14453125,-81.54296875
1656239071267.6875,47.36328125,748.046875,-283.69140625,74.70703125,-47.8515625
1656239071271.5938,46.875,724.12109375,-356.4453125,78.125,26.3671875
1656239071275.5,32.71484375,700.68359375,-284.1796875,70.3125,-18.06640625
1656239071279.4062,18.06640625,669.921875,-357.421875,52.734375,-11.71875
1656239071283.3125,1.46484375,649.4140625,-443.359375,42.48046875,7.32421875
1656239071287.2188,-27.34375,647.94921875,-539.55078125,16.11328125,141.6015625
1656239071291.125,-55.17578125,655.2734375,-374.0234375,14.6484375,217.7734375
1656239071295.0312,-66.40625,673.33984375,-173.828125,-1.46484375,-58.59375
1656239071298.9375,-60.05859375,682.12890625,-405.76171875,-24.90234375,-59.5703125
1656239071302.8438,-60.05859375,682.12890625,-541.9921875,-5.37109375,154.296875
1656239071306.75,-70.80078125,704.1015625,-404.296875,-18.06640625,52.24609375
1656239071310.6562,-81.54296875,713.37890625,-293.45703125,-31.25,-79.58984375
1656239071314.5625,-53.22265625,701.66015625,-439.453125,-19.53125,-0.48828125
1656239071318.4688,-47.8515625,679.6875,-571.77734375,-19.04296875,106.4453125
1656239071322.375,-80.078125,655.2734375,-388.671875,-17.08984375,13.671875
1656239071326.2812,-99.12109375,608.88671875,-410.15625,-27.83203125,-19.04296875
1656239071330.1875,-97.16796875,561.03515625,-509.27734375,-29.78515625,112.3046875
1656239071334.0938,-68.84765625,531.25,-543.45703125,-7.8125,304.19921875
1656239071338,-76.66015625,514.16015625,-273.92578125,-0.9765625,95.703125
1656239071341.9062,-83.984375,472.16796875,-259.27734375,-17.08984375,-118.1640625
1656239071345.8125,-96.6796875,422.36328125,-435.546875,-15.13671875,-21.97265625
1656239071349.7188,-85.9375,389.16015625,-373.53515625,-28.3203125,-28.80859375
1656239071353.625,-53.7109375,354.00390625,-309.08203125,-28.3203125,-114.2578125
1656239071357.5312,-65.91796875,303.7109375,-368.65234375,-15.13671875,-106.93359375
1656239071361.4375,-69.82421875,255.859375,-484.375,-25.87890625,61.03515625
1656239071365.3438,-73.73046875,231.4453125,-380.37109375,-32.71484375,4.39453125
1656239071369.25,-65.4296875,202.1484375,-299.8046875,-11.71875,-70.3125
1656239071373.1562,-29.78515625,167.96875,-373.046875,-12.20703125,-1.46484375
1656239071377.0625,-44.43359375,136.23046875,-511.23046875,-20.01953125,270.5078125
1656239071380.9688,-67.3828125,120.1171875,-464.35546875,-4.39453125,356.93359375
1656239071384.875,-40.52734375,118.1640625,-116.69921875,3.41796875,-26.3671875
1656239071388.7812,-52.24609375,93.26171875,-217.7734375,3.41796875,-97.65625
1656239071392.6875,-38.0859375,71.2890625,-326.171875,8.30078125,15.13671875
1656239071396.5938,-37.59765625,52.734375,-236.81640625,8.30078125,-3.41796875
1656239071400.5,-65.91796875,27.83203125,-270.5078125,13.18359375,-87.40234375
1656239071404.4062,-46.38671875,11.23046875,-340.8203125,-0.48828125,-49.31640625
1656239071408.3125,-14.16015625,5.859375,-324.21875,-16.6015625,-1.46484375
1656239071412.2188,-5.859375,2.44140625,-193.84765625,-16.11328125,-80.078125
1656239071416.125,-10.7421875,-14.16015625,-188.96484375,9.765625,-100.09765625
1656239071420.0312,-34.1796875,-38.57421875,-378.90625,11.71875,115.72265625
1656239071423.9375,-62.01171875,-61.5234375,-473.14453125,1.953125,345.703125
1656239071427.8438,-53.7109375,-80.56640625,-232.421875,-12.20703125,142.08984375
1656239071431.75,-34.1796875,-103.515625,-79.58984375,-26.85546875,-91.796875
1656239071435.6562,-32.71484375,-130.37109375,-276.85546875,-12.6953125,10.7421875
1656239071439.5625,-8.30078125,-155.76171875,-398.92578125,11.71875,251.46484375
1656239071443.4688,-6.8359375,-161.1328125,-132.32421875,10.7421875,38.57421875
1656239071447.375,-44.43359375,-170.41015625,-165.52734375,11.23046875,-130.37109375
1656239071451.2812,-47.36328125,-159.1796875,-270.99609375,14.6484375,-48.828125
1656239071455.1875,-27.34375,-130.37109375,-187.98828125,-18.06640625,-43.9453125
1656239071459.0938,-15.625,-115.234375,-175.78125,-8.7890625,-121.09375
1656239071463,0.48828125,-111.81640625,-232.91015625,9.765625,-97.65625
1656239071466.9062,-5.859375,-110.3515625,-359.86328125,-2.44140625,78.125
1656239071470.8125,-38.0859375,-84.47265625,-260.7421875,6.34765625,109.375
1656239071474.7188,-15.625,-59.08203125,-116.69921875,23.92578125,-16.6015625
1656239071478.625,-4.39453125,-60.05859375,-213.8671875,16.6015625,-61.5234375
1656239071482.5312,-18.06640625,-79.58984375,-453.125,16.6015625,181.15234375
1656239071486.4375,-1.46484375,-54.6875,-285.64453125,13.18359375,250
1656239071490.3438,6.34765625,-34.66796875,37.59765625,8.30078125,-67.3828125
1656239071494.25,3.90625,-47.36328125,-133.7890625,25.390625,-107.421875
1656239071498.1562,-22.4609375,-38.57421875,-239.74609375,16.11328125,-37.59765625
1656239071502.0625,-33.69140625,-41.015625,-164.55078125,12.20703125,-63.4765625
1656239071505.9688,-23.92578125,-46.38671875,-186.5234375,29.78515625,-72.75390625
1656239071509.875,-29.78515625,-44.921875,-251.46484375,13.671875,-50.29296875
1656239071513.7812,-16.6015625,-26.3671875,-267.08984375,11.71875,148.4375
1656239071517.6875,-0.48828125,-4.39453125,-211.9140625,28.80859375,162.59765625
1656239071521.5938,-17.08984375,-0.48828125,-167.96875,26.85546875,-1.46484375
1656239071525.5,-27.83203125,-20.99609375,-286.1328125,26.85546875,-29.78515625
1656239071529.4062,-14.6484375,-43.45703125,-428.7109375,29.78515625,215.33203125
1656239071533.3125,-0.9765625,-52.24609375,-117.67578125,29.78515625,60.05859375
1656239071537.2188,-6.34765625,-73.2421875,-121.58203125,23.4375,-94.23828125
1656239071541.125,0.9765625,-76.66015625,-276.85546875,20.5078125,33.203125
1656239071545.0312,13.18359375,-65.91796875,-143.5546875,16.6015625,53.7109375
1656239071548.9375,18.06640625,-68.359375,-80.56640625,16.6015625,-67.87109375
1656239071552.8438,10.7421875,-73.73046875,-169.43359375,19.04296875,-110.3515625
1656239071556.75,-11.71875,-84.47265625,-283.203125,21.97265625,-57.12890625
1656239071560.6562,-27.83203125,-95.703125,-293.45703125,12.6953125,26.3671875
1656239071564.5625,-19.04296875,-90.8203125,-205.078125,0.9765625,51.26953125
1656239071568.4688,-24.90234375,-81.54296875,-127.44140625,14.6484375,-41.015625
1656239071572.375,-21.97265625,-94.7265625,-354.98046875,17.578125,134.765625
1656239071576.2812,-24.90234375,-76.66015625,-212.890625,15.625,185.546875
1656239071580.1875,-22.94921875,-52.24609375,36.62109375,22.4609375,-76.171875
1656239071584.0938,-6.34765625,-83.49609375,-173.828125,30.76171875,-82.03125
1656239071588,-13.671875,-94.23828125,-204.1015625,34.66796875,25.390625
1656239071591.9062,5.37109375,-103.02734375,-116.2109375,15.13671875,-32.2265625
1656239071595.8125,14.16015625,-147.94921875,-180.17578125,6.8359375,-64.453125
1656239071599.7188,-2.9296875,-184.08203125,-240.72265625,10.7421875,43.45703125
1656239071603.625,-8.7890625,-204.58984375,-272.4609375,21.97265625,121.58203125
1656239071607.5312,-7.32421875,-221.19140625,-182.12890625,34.66796875,104.00390625
1656239071611.4375,-3.41796875,-231.4453125,-110.83984375,25.390625,43.9453125
1656239071615.3438,3.90625,-235.83984375,-188.4765625,13.18359375,-18.5546875
1656239071619.25,-0.48828125,-243.65234375,-366.2109375,25.390625,195.80078125
1656239071623.1562,-16.11328125,-222.16796875,-42.48046875,26.3671875,106.4453125
1656239071627.0625,-15.13671875,-217.28515625,33.69140625,22.94921875,-56.15234375
1656239071630.9688,4.39453125,-227.05078125,-190.91796875,26.3671875,-0.9765625
1656239071634.875,-0.9765625,-220.703125,-130.37109375,14.16015625,-16.11328125
1656239071638.7812,-4.39453125,-218.26171875,-71.77734375,7.32421875,-82.03125
1656239071642.6875,-15.13671875,-225.09765625,-147.4609375,20.5078125,-71.2890625
1656239071646.5938,-15.13671875,-234.375,-243.1640625,22.94921875,16.11328125
1656239071650.5,-19.53125,-227.5390625,-131.8359375,8.30078125,-3.90625
1656239071654.4062,-9.27734375,-221.6796875,-109.86328125,-4.8828125,18.5546875
1656239071658.3125,9.765625,-218.75,-136.23046875,3.41796875,85.44921875
1656239071662.2188,-1.953125,-230.95703125,-336.9140625,15.13671875,211.9140625
1656239071666.125,-27.83203125,-226.5625,-354.00390625,1.953125,347.16796875
1656239071670.0312,-13.671875,-202.1484375,100.5859375,-6.8359375,43.9453125
1656239071673.9375,-1.46484375,-207.51953125,37.59765625,8.30078125,-87.890625
1656239071677.8438,-19.04296875,-211.9140625,-195.3125,12.6953125,-20.99609375
1656239071681.75,-4.8828125,-201.66015625,-133.30078125,-0.48828125,-99.609375
1656239071685.6562,2.9296875,-195.3125,-102.5390625,-3.41796875,-127.9296875
1656239071689.5625,2.9296875,-199.21875,-190.91796875,8.30078125,-63.96484375
1656239071693.4688,-0.48828125,-193.84765625,-178.22265625,10.7421875,-38.57421875
1656239071697.375,-10.25390625,-182.12890625,-85.44921875,9.27734375,-73.2421875
1656239071701.2812,-24.4140625,-188.4765625,-184.08203125,0.48828125,-42.96875
1656239071705.1875,-31.25,-194.3359375,-283.203125,-7.32421875,100.5859375
1656239071709.0938,-20.01953125,-195.80078125,-360.83984375,10.25390625,297.36328125
1656239071713,-7.8125,-175.78125,-82.03125,10.25390625,118.1640625
1656239071716.9062,-12.20703125,-163.57421875,88.8671875,-0.9765625,-86.9140625
1656239071720.8125,-23.4375,-174.8046875,-184.08203125,3.90625,4.8828125
1656239071724.7188,-10.25390625,-171.875,-228.515625,-3.41796875,74.21875
1656239071728.625,2.44140625,-165.52734375,-42.96875,-20.01953125,-44.43359375
1656239071732.5312,-18.06640625,-176.7578125,-100.09765625,-16.6015625,-113.28125
1656239071736.4375,-8.30078125,-187.5,-212.40234375,3.90625,-30.2734375
1656239071740.3438,-3.41796875,-178.7109375,-166.50390625,4.39453125,-13.671875
1656239071744.25,-28.3203125,-178.22265625,-137.20703125,-6.8359375,-21.484375
1656239071748.1562,-20.5078125,-187.5,-249.51171875,-16.11328125,57.12890625
1656239071752.0625,8.30078125,-191.89453125,-310.546875,-4.8828125,187.01171875
1656239071755.9688,-1.46484375,-170.8984375,-90.8203125,12.6953125,158.69140625
1656239071759.875,-3.90625,-161.1328125,40.0390625,16.6015625,-43.9453125
1656239071763.7812,4.39453125,-172.8515625,-121.58203125,17.08984375,-98.6328125
1656239071767.6875,-0.48828125,-180.17578125,-390.625,9.765625,96.19140625
1656239071771.5938,-5.859375,-162.109375,-196.77734375,-7.8125,113.28125
1656239071775.5,0.9765625,-150.87890625,115.234375,-10.25390625,-72.75390625
1656239071779.4062,9.765625,-170.41015625,-81.54296875,-11.71875,-21.97265625
1656239071783.3125,-13.671875,-175.29296875,-290.52734375,-5.37109375,152.83203125
1656239071787.2188,-16.11328125,-154.78515625,-92.7734375,-3.41796875,22.94921875
1656239071791.125,-16.11328125,-152.34375,-3.41796875,-3.41796875,-139.6484375
1656239071795.0312,-15.13671875,-162.59765625,-206.54296875,10.25390625,21.97265625
1656239071798.9375,4.8828125,-166.9921875,-343.26171875,15.625,307.12890625
1656239071802.8438,-1.46484375,-150.390625,-20.5078125,-2.44140625,84.47265625
1656239071806.75,-10.25390625,-151.3671875,20.5078125,-4.39453125,-128.41796875
1656239071810.6562,0.9765625,-155.76171875,-128.41796875,18.06640625,-24.4140625
1656239071814.5625,2.9296875,-151.85546875,-38.0859375,23.92578125,24.90234375
1656239071818.4688,-10.7421875,-148.92578125,-17.578125,0.9765625,-13.18359375
1656239071822.375,-3.90625,-152.83203125,-124.51171875,-24.90234375,-51.7578125
1656239071826.2812,-0.48828125,-160.15625,-228.515625,-26.3671875,-1.953125
1656239071830.1875,5.859375,-150.390625,-173.33984375,-15.625,71.2890625
1656239071834.0938,-1.953125,-145.99609375,-14.6484375,-10.7421875,24.4140625
1656239071838,-17.08984375,-159.1796875,-40.52734375,-23.4375,-59.5703125
1656239071841.9062,-7.8125,-178.22265625,-343.26171875,-20.99609375,123.53515625
1656239071845.8125,-23.92578125,-170.41015625,-314.94140625,-1.46484375,300.29296875
1656239071849.7188,-16.11328125,-150.390625,56.15234375,1.46484375,35.64453125
1656239071853.625,7.32421875,-152.83203125,22.4609375,6.8359375,-96.6796875
1656239071857.5312,1.46484375,-166.015625,-291.9921875,14.16015625,131.34765625
1656239071861.4375,-17.08984375,-154.296875,-134.765625,0.48828125,114.74609375
1656239071865.3438,-19.04296875,-149.90234375,-2.9296875,-21.484375,-63.96484375
1656239071869.25,-20.5078125,-154.78515625,-142.08984375,-31.25,-22.94921875
1656239071873.1562,-20.01953125,-148.4375,-152.83203125,-25.390625,14.16015625
1656239071877.0625,3.41796875,-143.5546875,-67.3828125,-18.5546875,-59.5703125
1656239071880.9688,8.7890625,-143.06640625,-68.84765625,-0.48828125,-82.51953125
1656239071884.875,-2.44140625,-150.87890625,-195.80078125,5.37109375,-35.15625
1656239071888.7812,0,-159.1796875,-203.125,-14.6484375,22.94921875
1656239071892.6875,-18.06640625,-154.296875,-100.5859375,-17.578125,100.5859375
1656239071896.5938,-24.90234375,-145.5078125,-89.84375,-16.11328125,35.64453125
1656239071900.5,-10.7421875,-145.01953125,-161.62109375,-14.16015625,67.87109375
1656239071904.4062,-4.39453125,-141.6015625,-240.234375,2.44140625,221.19140625
1656239071908.3125,-2.44140625,-136.71875,10.7421875,-0.9765625,8.7890625
1656239071912.2188,-12.6953125,-141.11328125,104.4921875,0.9765625,-121.09375
1656239071916.125,-22.94921875,-153.3203125,-180.6640625,1.46484375,46.875
1656239071920.0312,-34.1796875,-157.2265625,-343.26171875,-10.7421875,272.94921875
1656239071923.9375,-18.06640625,-137.20703125,25.390625,-26.3671875,73.73046875
1656239071927.8438,-3.41796875,-137.6953125,83.49609375,-18.5546875,-48.33984375
1656239071931.75,-23.92578125,-147.4609375,-111.81640625,-0.9765625,46.875
1656239071935.6562,-24.90234375,-147.94921875,-92.28515625,-8.7890625,53.7109375
1656239071939.5625,-18.06640625,-148.4375,-57.12890625,-21.97265625,87.890625
1656239071943.4688,-11.23046875,-146.484375,-73.73046875,-15.13671875,73.73046875
1656239071947.375,-8.30078125,-156.73828125,-250.48828125,-0.48828125,253.41796875
1656239071951.2812,-21.484375,-144.04296875,-95.21484375,8.30078125,286.1328125
1656239071955.1875,-6.34765625,-128.41796875,248.046875,5.859375,-60.546875
1656239071959.0938,-13.18359375,-139.6484375,7.8125,-27.34375,-106.93359375
1656239071963,-33.69140625,-147.94921875,-263.18359375,-29.296875,112.79296875
1656239071966.9062,-29.296875,-133.30078125,-17.08984375,-22.4609375,-0.48828125
1656239071970.8125,-6.34765625,-132.32421875,104.4921875,-28.80859375,-147.4609375
1656239071974.7188,7.32421875,-140.625,-8.7890625,-19.53125,-51.26953125
1656239071978.625,-11.23046875,-143.5546875,-59.5703125,-20.01953125,-20.5078125
1656239071982.5312,-25.390625,-146.97265625,-104.4921875,-11.71875,13.18359375
1656239071986.4375,-13.18359375,-142.08984375,-8.30078125,-1.46484375,58.59375
1656239071990.3438,-3.41796875,-145.99609375,-6.34765625,-5.37109375,64.453125
1656239071994.25,4.39453125,-149.4140625,-182.6171875,8.30078125,284.66796875
1656239071998.1562,-11.23046875,-125.9765625,124.0234375,4.8828125,128.90625
1656239072002.0625,-18.06640625,-127.9296875,152.83203125,-1.46484375,-95.21484375
1656239072005.9688,-1.953125,-143.06640625,-77.63671875,12.6953125,57.6171875
1656239072009.875,-3.90625,-131.34765625,19.53125,9.27734375,29.78515625
1656239072013.7812,-10.25390625,-122.0703125,121.09375,-4.39453125,-114.2578125
1656239072017.6875,-9.27734375,-128.90625,23.92578125,-7.8125,-117.1875
1656239072021.5938,-4.39453125,-141.11328125,-113.76953125,-23.4375,-1.953125
1656239072025.5,0,-143.5546875,-43.9453125,-31.25,-5.37109375
1656239072029.4062,3.41796875,-144.53125,4.8828125,-29.296875,15.13671875
1656239072033.3125,-2.44140625,-145.99609375,-14.6484375,-23.92578125,80.078125
1656239072037.2188,-19.04296875,-152.83203125,-114.74609375,-10.25390625,172.36328125
1656239072041.125,-8.7890625,-150.87890625,-16.6015625,19.53125,166.9921875
1656239072045.0312,-8.30078125,-135.7421875,146.97265625,8.30078125,-57.6171875
1656239072048.9375,-49.31640625,-138.671875,21.97265625,-38.57421875,-66.40625
1656239072052.8438,-62.5,-151.85546875,-190.91796875,-47.36328125,162.59765625
1656239072056.75,-55.17578125,-129.8828125,30.2734375,-55.17578125,78.125
1656239072060.6562,-70.80078125,-129.39453125,126.46484375,-42.96875,-108.88671875
1656239072064.5625,-84.47265625,-146.97265625,-145.5078125,-31.73828125,48.33984375
1656239072068.4688,-74.70703125,-138.18359375,-140.625,-49.8046875,157.2265625
1656239072072.375,-66.40625,-129.8828125,120.60546875,-56.15234375,-21.97265625
1656239072076.2812,-73.73046875,-142.578125,73.2421875,-61.03515625,-24.90234375
1656239072080.1875,-68.359375,-157.2265625,-96.19140625,-56.640625,136.71875
1656239072084.0938,-60.05859375,-159.1796875,-209.47265625,-42.48046875,327.1484375
1656239072088,-43.9453125,-142.578125,139.16015625,-48.828125,76.66015625
1656239072091.9062,-34.1796875,-148.92578125,253.90625,-46.875,-169.921875
1656239072095.8125,-43.9453125,-163.0859375,34.66796875,-35.15625,-65.4296875
1656239072099.7188,-27.34375,-152.34375,47.8515625,-32.2265625,14.6484375
1656239072103.625,-33.69140625,-144.53125,82.03125,-29.296875,-9.27734375
1656239072107.5312,-41.015625,-153.80859375,21.484375,-33.69140625,-47.36328125
1656239072111.4375,-26.3671875,-159.66796875,-34.1796875,-29.296875,-21.484375
1656239072115.3438,-40.0390625,-149.4140625,54.19921875,-18.06640625,-3.90625
1656239072119.25,-50.29296875,-155.2734375,55.17578125,-22.4609375,-33.203125
1656239072123.1562,-37.109375,-166.50390625,-62.01171875,-18.5546875,29.296875
1656239072127.0625,-25.390625,-169.921875,-140.13671875,-30.76171875,177.24609375
1656239072130.9688,-21.97265625,-153.3203125,-3.41796875,-35.64453125,99.12109375
1656239072134.875,-31.25,-133.7890625,228.02734375,-12.20703125,-55.17578125
1656239072138.7812,-23.92578125,-145.5078125,104.4921875,0.48828125,-27.34375
1656239072142.6875,-6.34765625,-155.2734375,-152.83203125,-21.97265625,126.953125
1656239072146.5938,-18.06640625,-146.484375,28.80859375,-36.62109375,87.890625
1656239072150.5,-25.87890625,-150.87890625,174.8046875,-40.0390625,-79.1015625
1656239072154.4062,-28.3203125,-156.25,67.3828125,-34.66796875,-109.86328125
1656239072158.3125,-31.25,-159.66796875,-269.04296875,-23.92578125,235.83984375
1656239072162.2188,-27.34375,-137.20703125,-43.45703125,-14.6484375,302.24609375
1656239072166.125,-30.76171875,-129.8828125,297.8515625,-15.625,-20.5078125
1656239072170.0312,-23.4375,-145.99609375,63.4765625,-31.25,66.40625
1656239072173.9375,-17.08984375,-139.6484375,62.98828125,-24.90234375,97.65625
1656239072177.8438,-33.203125,-137.20703125,149.90234375,-21.97265625,-62.5
1656239072181.75,-35.64453125,-144.53125,69.3359375,-22.94921875,-74.70703125
1656239072185.6562,-28.80859375,-152.34375,-6.8359375,-25.390625,24.90234375
1656239072189.5625,-24.4140625,-155.2734375,-176.7578125,-15.625,276.85546875
1656239072193.4688,-23.4375,-124.0234375,201.66015625,-10.25390625,137.6953125
1656239072197.375,-20.01953125,-123.53515625,330.56640625,-19.53125,-91.796875
1656239072201.2812,-14.16015625,-140.625,20.5078125,-20.99609375,-55.6640625
1656239072205.1875,-17.578125,-137.20703125,79.1015625,-17.578125,-68.84765625
1656239072209.0938,-0.48828125,-125.9765625,147.4609375,-11.23046875,-128.90625
1656239072213,-5.859375,-123.046875,110.3515625,-10.25390625,-105.46875
1656239072216.9062,-20.01953125,-132.8125,-81.0546875,-11.23046875,64.94140625
1656239072220.8125,-11.71875,-118.65234375,-35.64453125,-7.8125,73.2421875
1656239072224.7188,-7.32421875,-101.5625,154.296875,0,-30.2734375
1656239072228.625,-12.20703125,-104.98046875,130.859375,-11.23046875,-75.68359375
1656239072232.5312,-3.90625,-120.1171875,-79.1015625,-24.4140625,136.71875
1656239072236.4375,-5.37109375,-104.98046875,57.6171875,-24.90234375,160.15625
1656239072240.3438,-12.6953125,-102.5390625,164.0625,-32.71484375,-49.8046875
1656239072244.25,-1.953125,-113.76953125,29.296875,-32.71484375,-35.15625
1656239072248.1562,1.46484375,-112.3046875,-79.1015625,-14.6484375,100.5859375
1656239072252.0625,2.9296875,-97.65625,137.20703125,-18.5546875,37.59765625
1656239072255.9688,-2.9296875,-98.6328125,178.22265625,-24.90234375,-99.609375
1656239072259.875,3.41796875,-104.98046875,-18.06640625,-7.32421875,-69.82421875
1656239072263.7812,13.18359375,-109.375,-49.8046875,-13.671875,104.00390625
1656239072267.6875,1.953125,-104.00390625,65.91796875,-23.4375,99.609375
1656239072271.5938,-4.39453125,-90.33203125,231.4453125,-27.34375,-23.92578125
1656239072275.5,-6.34765625,-103.02734375,38.57421875,-28.3203125,30.2734375
1656239072279.4062,-11.71875,-114.2578125,-193.359375,-13.671875,250
1656239072283.3125,0,-102.5390625,136.71875,-8.30078125,37.59765625
1656239072287.2188,21.97265625,-104.00390625,175.78125,-13.18359375,-129.8828125
1656239072291.125,19.53125,-111.328125,9.765625,-6.34765625,-84.47265625
1656239072295.0312,-1.46484375,-104.4921875,80.56640625,1.46484375,-73.73046875
1656239072298.9375,7.32421875,-99.609375,62.5,-10.25390625,-22.94921875
1656239072302.8438,18.06640625,-101.07421875,70.80078125,-17.578125,-25.87890625
1656239072306.75,0.48828125,-111.81640625,-31.25,-14.6484375,80.078125
1656239072310.6562,7.8125,-111.81640625,-39.0625,-8.7890625,179.19921875
1656239072314.5625,18.06640625,-101.07421875,131.34765625,15.13671875,120.60546875
1656239072318.4688,3.41796875,-101.5625,147.94921875,5.859375,-32.2265625
1656239072322.375,2.44140625,-124.51171875,-163.0859375,-17.08984375,119.62890625
1656239072326.2812,-6.34765625,-111.328125,-46.38671875,-26.3671875,231.4453125
1656239072330.1875,-7.8125,-98.6328125,296.38671875,-29.78515625,-43.45703125
1656239072334.0938,5.37109375,-114.2578125,113.76953125,-9.765625,-68.359375
1656239072338,-1.46484375,-112.79296875,-26.3671875,-29.296875,-20.99609375
1656239072341.9062,-5.859375,-115.234375,57.6171875,-40.0390625,-93.75
1656239072345.8125,8.30078125,-119.62890625,92.28515625,-16.11328125,-91.796875
1656239072349.7188,17.08984375,-120.60546875,25.87890625,-9.765625,-16.11328125
1656239072353.625,12.6953125,-122.0703125,-10.7421875,-17.08984375,-11.71875
1656239072357.5312,-9.27734375,-102.05078125,24.4140625,-12.6953125,30.2734375
1656239072361.4375,-18.06640625,-81.54296875,7.8125,-19.04296875,73.73046875
1656239072365.3438,-20.5078125,-81.0546875,-52.24609375,-12.20703125,153.80859375
1656239072369.25,-31.25,-91.30859375,-222.65625,0.9765625,434.08203125
1656239072373.1562,-10.25390625,-71.2890625,139.6484375,-18.5546875,241.2109375
1656239072377.0625,0.48828125,-61.03515625,299.8046875,-18.5546875,-101.07421875
1656239072380.9688,-14.6484375,-81.0546875,20.01953125,-4.39453125,-37.59765625
1656239072384.875,-8.30078125,-80.56640625,21.484375,1.46484375,-0.48828125
1656239072388.7812,-2.9296875,-76.171875,83.984375,-8.7890625,-76.66015625
1656239072392.6875,1.953125,-87.40234375,37.109375,-28.3203125,-86.9140625
1656239072396.5938,-15.625,-93.75,-29.78515625,-30.2734375,-24.4140625
1656239072400.5,-24.4140625,-89.84375,10.25390625,-21.97265625,-35.64453125
1656239072404.4062,-7.8125,-90.8203125,-42.96875,-9.27734375,19.53125
1656239072408.3125,-10.25390625,-89.35546875,-37.109375,-8.30078125,39.0625
1656239072412.2188,-6.34765625,-93.26171875,-142.08984375,1.46484375,159.66796875
1656239072416.125,-5.859375,-85.9375,-105.46875,-1.46484375,258.30078125
1656239072420.0312,4.8828125,-67.87109375,236.328125,-8.30078125,-31.73828125
1656239072423.9375,-2.44140625,-79.1015625,107.91015625,-5.859375,-83.0078125
1656239072427.8438,-20.99609375,-88.8671875,-184.5703125,-7.32421875,98.6328125
1656239072431.75,-19.53125,-75.1953125,20.01953125,-3.90625,-30.76171875
1656239072435.6562,-16.6015625,-70.3125,166.9921875,-3.90625,-125.9765625
1656239072439.5625,-3.41796875,-76.66015625,-29.296875,-5.37109375,-56.15234375
1656239072443.4688,0.9765625,-76.171875,-92.7734375,-8.30078125,-21.97265625
1656239072447.375,1.46484375,-73.2421875,31.73828125,1.46484375,-26.85546875
1656239072451.2812,-1.46484375,-87.40234375,-0.48828125,1.46484375,38.57421875
1656239072455.1875,-3.90625,-96.6796875,-107.421875,-14.6484375,91.796875
1656239072459.0938,-5.37109375,-102.5390625,-263.18359375,-10.7421875,257.8125
1656239072463,-5.37109375,-91.796875,29.296875,-4.8828125,138.18359375
1656239072466.9062,1.46484375,-94.7265625,149.90234375,0.9765625,-69.82421875
1656239072470.8125,-11.71875,-114.2578125,-100.5859375,-6.8359375,-52.734375
1656239072474.7188,-20.5078125,-118.65234375,-115.72265625,1.953125,57.6171875
1656239072478.625,-15.13671875,-110.83984375,6.34765625,3.90625,-16.11328125
1656239072482.5312,6.34765625,-109.86328125,-31.73828125,-1.46484375,-120.60546875
1656239072486.4375,21.484375,-115.72265625,-215.8203125,18.06640625,-4.39453125
1656239072490.3438,-1.46484375,-101.5625,-99.609375,16.11328125,52.734375
1656239072494.25,-1.46484375,-98.14453125,38.0859375,0.48828125,-52.734375
1656239072498.1562,14.6484375,-112.79296875,-99.609375,-12.20703125,1.953125
1656239072502.0625,-9.765625,-127.9296875,-306.15234375,-4.39453125,240.72265625
1656239072505.9688,-15.13671875,-111.328125,-203.125,-3.90625,274.90234375
1656239072509.875,4.8828125,-91.796875,133.30078125,-15.625,-17.578125
1656239072513.7812,11.71875,-103.515625,41.9921875,-8.30078125,-67.87109375
1656239072517.6875,14.16015625,-113.28125,-142.578125,3.41796875,28.80859375
1656239072521.5938,10.25390625,-111.328125,-92.7734375,6.34765625,-35.64453125
1656239072525.5,5.859375,-114.74609375,-58.59375,10.25390625,-104.98046875
1656239072529.4062,14.16015625,-118.1640625,-150.390625,38.57421875,-78.125
1656239072533.3125,20.01953125,-111.81640625,-216.796875,20.01953125,26.3671875
1656239072537.2188,24.4140625,-100.5859375,-77.63671875,4.39453125,-5.859375
1656239072541.125,34.1796875,-107.421875,-76.66015625,21.484375,-135.25390625
1656239072545.0312,34.66796875,-127.9296875,-252.44140625,13.671875,-15.625
1656239072548.9375,23.92578125,-135.7421875,-495.60546875,19.04296875,380.37109375
1656239072552.8438,23.92578125,-105.46875,-83.984375,11.23046875,292.48046875
1656239072556.75,21.97265625,-102.5390625,213.37890625,0.9765625,-57.12890625
1656239072560.6562,18.06640625,-124.0234375,-115.72265625,-1.953125,-45.8984375
1656239072564.5625,16.11328125,-121.09375,-168.45703125,-19.53125,29.78515625
1656239072568.4688,19.04296875,-120.1171875,-34.66796875,-14.6484375,18.06640625
1656239072572.375,21.484375,-119.62890625,-3.90625,-1.46484375,-34.1796875
1656239072576.2812,11.23046875,-120.1171875,-144.53125,1.953125,-7.8125
1656239072580.1875,14.6484375,-121.58203125,-142.08984375,4.39453125,-13.18359375
1656239072584.0938,12.6953125,-121.09375,-61.5234375,12.6953125,-53.7109375
1656239072588,17.08984375,-124.0234375,-134.765625,30.76171875,-66.40625
1656239072591.9062,14.16015625,-137.20703125,-245.1171875,12.20703125,46.38671875
1656239072595.8125,7.8125,-130.37109375,-132.32421875,-1.46484375,131.8359375
1656239072599.7188,8.30078125,-118.65234375,-32.71484375,9.27734375,94.23828125
1656239072603.625,2.44140625,-120.60546875,13.18359375,12.6953125,-11.23046875
1656239072607.5312,6.8359375,-139.16015625,-263.18359375,13.671875,192.87109375
1656239072611.4375,25.390625,-122.0703125,-202.1484375,9.27734375,350.5859375
1656239072615.3438,11.23046875,-105.46875,239.2578125,12.20703125,29.296875
1656239072619.25,-3.90625,-121.09375,51.7578125,5.859375,-43.45703125
1656239072623.1562,4.39453125,-123.53515625,-165.52734375,-5.859375,10.7421875
1656239072627.0625,23.92578125,-117.67578125,-62.5,16.6015625,-69.3359375
1656239072630.9688,39.0625,-116.2109375,23.92578125,18.5546875,-127.44140625
1656239072634.875,15.625,-117.67578125,-40.0390625,-0.9765625,-30.76171875
1656239072638.7812,-20.01953125,-123.53515625,-196.2890625,-7.32421875,135.7421875
1656239072642.6875,-33.203125,-114.2578125,-125.48828125,-36.1328125,50.29296875
1656239072646.5938,-25.390625,-100.09765625,1.46484375,-52.734375,-72.265625
1656239072650.5,-24.4140625,-111.81640625,-130.859375,-41.015625,20.01953125
1656239072654.4062,-41.015625,-108.3984375,-92.28515625,-32.71484375,159.1796875
1656239072658.3125,-47.8515625,-102.5390625,92.7734375,-33.69140625,-2.9296875
1656239072662.2188,-22.94921875,-117.67578125,33.203125,-31.25,-124.51171875
1656239072666.125,-7.8125,-141.11328125,-196.2890625,-24.4140625,2.9296875
1656239072670.0312,-7.8125,-133.30078125,-229.4921875,-23.92578125,174.31640625
1656239072673.9375,2.44140625,-116.69921875,137.6953125,-17.578125,-34.1796875
1656239072677.8438,4.8828125,-131.34765625,127.44140625,-8.7890625,-110.83984375
1656239072681.75,-4.8828125,-146.97265625,-111.328125,-9.765625,43.45703125
1656239072685.6562,4.39453125,-150.390625,-158.69140625,-3.41796875,82.03125
1656239072689.5625,23.92578125,-146.97265625,-62.98828125,12.6953125,100.5859375
1656239072693.4688,3.41796875,-145.99609375,85.9375,12.20703125,59.08203125
1656239072697.375,3.41796875,-166.9921875,-174.8046875,-2.9296875,192.87109375
1656239072701.2812,4.8828125,-151.85546875,-170.8984375,-1.953125,273.4375
1656239072705.1875,-10.25390625,-133.7890625,150.87890625,-4.8828125,-6.34765625
1656239072709.0938,10.7421875,-151.85546875,-19.53125,-7.32421875,-20.99609375
1656239072713,8.7890625,-155.76171875,-150.87890625,-1.46484375,131.8359375
1656239072716.9062,-9.765625,-143.06640625,81.54296875,2.9296875,32.71484375
1656239072720.8125,-7.32421875,-152.83203125,108.88671875,-7.8125,-50.29296875
1656239072724.7188,0.9765625,-162.59765625,-92.7734375,-13.671875,-19.53125
1656239072728.625,7.32421875,-160.64453125,-68.359375,-0.9765625,21.484375
1656239072732.5312,-4.39453125,-165.52734375,-16.11328125,-6.34765625,58.10546875
1656239072736.4375,8.7890625,-158.203125,-1.953125,-17.578125,36.62109375
1656239072740.3438,18.06640625,-157.2265625,-43.9453125,-0.9765625,42.48046875
1656239072744.25,-16.11328125,-166.50390625,-273.92578125,23.92578125,262.20703125
1656239072748.1562,-20.01953125,-141.6015625,80.56640625,6.8359375,83.984375
1656239072752.0625,-14.16015625,-138.671875,256.8359375,-7.8125,-137.20703125
1656239072755.9688,-6.8359375,-145.99609375,34.1796875,-16.6015625,-55.17578125
1656239072759.875,-10.25390625,-133.30078125,69.3359375,-16.6015625,-43.9453125
1656239072763.7812,-14.6484375,-129.8828125,60.05859375,-3.90625,-53.22265625
1656239072767.6875,15.625,-130.37109375,-46.875,-4.8828125,17.578125
1656239072771.5938,30.2734375,-129.39453125,-58.10546875,5.37109375,91.796875
1656239072775.5,28.3203125,-119.140625,75.68359375,17.08984375,57.6171875
1656239072779.4062,15.13671875,-113.76953125,63.96484375,0.48828125,-4.39453125
1656239072783.3125,-3.41796875,-116.69921875,-45.41015625,-7.32421875,47.8515625
1656239072787.2188,-13.18359375,-131.34765625,-180.6640625,-5.859375,213.37890625
1656239072791.125,-17.08984375,-119.62890625,-32.2265625,-3.90625,207.03125
1656239072795.0312,0,-99.609375,326.66015625,3.41796875,-76.171875
1656239072798.9375,5.37109375,-113.76953125,137.20703125,16.6015625,-105.95703125
1656239072802.8438,0.48828125,-114.2578125,-121.09375,0.48828125,6.34765625
1656239072806.75,17.08984375,-99.12109375,56.15234375,-4.39453125,-56.640625
1656239072810.6562,50.78125,-102.5390625,179.6875,15.13671875,-90.8203125
1656239072814.5625,53.22265625,-105.46875,33.203125,32.71484375,-66.89453125
1656239072818.4688,45.41015625,-112.3046875,-41.50390625,29.78515625,-33.203125
1656239072822.375,41.50390625,-121.09375,28.3203125,14.16015625,-22.4609375
1656239072826.2812,30.76171875,-127.9296875,0.9765625,16.11328125,16.6015625
1656239072830.1875,39.55078125,-136.23046875,-48.33984375,26.85546875,103.515625
1656239072834.0938,34.66796875,-145.5078125,-235.83984375,39.55078125,425.29296875
1656239072838,22.4609375,-124.0234375,56.15234375,27.34375,248.53515625
1656239072841.9062,11.71875,-125.48828125,281.25,16.11328125,-130.859375
1656239072845.8125,9.765625,-141.6015625,73.73046875,16.6015625,-72.265625
1656239072849.7188,18.06640625,-130.859375,101.07421875,10.25390625,-33.203125
1656239072853.625,17.578125,-122.55859375,163.0859375,17.08984375,-120.60546875
1656239072857.5312,19.53125,-122.55859375,95.21484375,26.3671875,-106.93359375
1656239072861.4375,22.94921875,-130.37109375,-50.29296875,33.203125,-4.39453125
1656239072865.3438,22.4609375,-122.55859375,9.765625,33.203125,-18.06640625
1656239072869.25,24.4140625,-112.79296875,52.24609375,10.25390625,-93.26171875
1656239072873.1562,35.64453125,-125.9765625,1.46484375,8.7890625,35.64453125
1656239072877.0625,25.390625,-143.06640625,-170.8984375,30.76171875,218.75
1656239072880.9688,13.18359375,-124.0234375,-143.5546875,31.73828125,260.25390625
1656239072884.875,25.390625,-112.3046875,172.36328125,25.87890625,80.078125
1656239072888.7812,35.15625,-128.90625,143.5546875,21.97265625,-50.78125
1656239072892.6875,23.92578125,-143.5546875,-67.87109375,20.5078125,34.66796875
1656239072896.5938,19.53125,-138.18359375,90.8203125,17.08984375,-13.671875
1656239072900.5,30.76171875,-145.01953125,173.828125,23.4375,-87.40234375
1656239072904.4062,17.578125,-169.43359375,-11.23046875,34.1796875,-99.12109375
1656239072908.3125,15.13671875,-177.734375,-25.87890625,24.4140625,-61.5234375
1656239072912.2188,45.41015625,-171.875,130.859375,16.11328125,-45.41015625
1656239072916.125,55.17578125,-182.6171875,129.39453125,15.13671875,-118.65234375
1656239072920.0312,36.62109375,-203.125,-123.53515625,19.53125,73.73046875
1656239072923.9375,26.85546875,-202.1484375,-228.515625,19.53125,337.890625
1656239072927.8438,15.625,-181.640625,161.62109375,16.11328125,93.26171875
1656239072931.75,20.01953125,-183.10546875,280.2734375,24.4140625,-109.86328125
1656239072935.6562,44.921875,-188.96484375,70.3125,20.01953125,-32.71484375
1656239072939.5625,27.83203125,-190.91796875,-17.578125,12.6953125,52.24609375
1656239072943.4688,14.6484375,-179.6875,62.5,-5.859375,40.52734375
1656239072947.375,23.92578125,-171.875,163.57421875,-13.18359375,-60.546875
1656239072951.2812,25.390625,-178.22265625,79.1015625,-0.48828125,-15.13671875
1656239072955.1875,26.85546875,-164.0625,79.58984375,-0.9765625,26.3671875
1656239072959.0938,6.8359375,-155.76171875,188.96484375,-0.48828125,-93.75
1656239072963,-1.953125,-161.1328125,127.9296875,13.18359375,-78.125
1656239072966.9062,6.8359375,-168.45703125,-71.77734375,1.46484375,68.84765625
1656239072970.8125,15.13671875,-151.85546875,-7.8125,-3.90625,105.95703125
1656239072974.7188,25.87890625,-137.6953125,246.09375,10.7421875,-27.83203125
1656239072978.625,23.92578125,-158.203125,158.203125,18.5546875,-71.77734375
1656239072982.5312,5.859375,-177.734375,-194.3359375,6.8359375,103.515625
1656239072986.4375,5.37109375,-158.203125,-12.6953125,2.44140625,153.3203125
1656239072990.3438,15.13671875,-149.4140625,262.20703125,4.8828125,-13.18359375
1656239072994.25,12.6953125,-162.109375,151.85546875,-5.859375,-81.0546875
1656239072998.1562,8.30078125,-161.1328125,5.37109375,-8.30078125,-6.8359375
1656239073002.0625,20.99609375,-163.0859375,-53.7109375,-4.8828125,-20.5078125
1656239073005.9688,23.4375,-158.69140625,91.30859375,-4.39453125,-124.51171875
1656239073009.875,0.9765625,-160.15625,82.03125,-0.9765625,-62.5
1656239073013.7812,13.18359375,-173.828125,-211.9140625,7.32421875,352.05078125
1656239073017.6875,12.20703125,-151.85546875,20.01953125,19.04296875,313.4765625
1656239073021.5938,-9.27734375,-142.08984375,269.04296875,18.06640625,4.8828125
1656239073025.5,7.32421875,-164.0625,17.578125,-9.27734375,37.109375
1656239073029.4062,13.671875,-157.2265625,-103.515625,4.39453125,179.6875
1656239073033.3125,8.7890625,-147.4609375,211.42578125,23.92578125,24.90234375
1656239073037.2188,-3.90625,-170.41015625,145.01953125,8.30078125,-94.7265625
1656239073041.125,-7.8125,-181.15234375,-64.453125,-6.34765625,-38.57421875
1656239073045.0312,-0.9765625,-173.33984375,17.578125,-6.8359375,-7.32421875
1656239073048.9375,-0.9765625,-172.36328125,135.25390625,-6.8359375,-7.8125
1656239073052.8438,5.37109375,-180.6640625,77.1484375,-1.953125,-42.96875
1656239073056.75,2.44140625,-188.96484375,-68.84765625,-2.9296875,26.85546875
1656239073060.6562,2.9296875,-187.98828125,-93.75,-14.6484375,115.234375
1656239073064.5625,-7.8125,-188.4765625,-73.73046875,-16.6015625,91.796875
1656239073068.4688,-16.6015625,-189.94140625,8.7890625,-7.32421875,54.19921875
1656239073072.375,6.8359375,-201.171875,-141.6015625,6.34765625,186.5234375
1656239073076.2812,3.41796875,-194.3359375,-250,-9.27734375,318.359375
1656239073080.1875,-16.6015625,-169.921875,246.58203125,-24.90234375,21.97265625
1656239073084.0938,-2.9296875,-185.546875,198.73046875,-20.5078125,-92.7734375
1656239073088,20.01953125,-196.2890625,-87.890625,-7.8125,-1.46484375
1656239073091.9062,-6.34765625,-192.3828125,102.05078125,-13.18359375,-64.94140625
1656239073095.8125,-39.0625,-197.75390625,126.953125,-34.1796875,-78.61328125
1656239073099.7188,-28.80859375,-205.56640625,-37.59765625,-18.5546875,-48.828125
1656239073103.625,-0.9765625,-206.0546875,-84.9609375,-1.46484375,-13.18359375
1656239073107.5312,-18.06640625,-209.9609375,-51.7578125,-2.44140625,64.94140625
1656239073111.4375,-22.94921875,-211.9140625,11.23046875,-9.27734375,49.8046875
1656239073115.3438,0.9765625,-213.37890625,6.34765625,-0.48828125,46.38671875
1656239073119.25,-5.37109375,-223.14453125,-309.5703125,7.32421875,334.47265625
1656239073123.1562,-26.3671875,-199.21875,6.34765625,-0.9765625,206.0546875
1656239073127.0625,-32.2265625,-187.01171875,326.171875,-8.30078125,-60.546875
1656239073130.9688,0.9765625,-198.73046875,81.0546875,-13.671875,0.48828125
1656239073134.875,9.27734375,-198.2421875,36.1328125,-7.32421875,-26.3671875
1656239073138.7812,-22.4609375,-193.84765625,84.9609375,-10.25390625,-86.42578125
1656239073142.6875,-22.94921875,-202.63671875,4.39453125,-12.6953125,-61.5234375
1656239073146.5938,-5.37109375,-211.9140625,-104.4921875,-15.13671875,15.13671875
1656239073150.5,-20.01953125,-204.1015625,-12.6953125,-14.6484375,1.953125
1656239073154.4062,-11.23046875,-202.63671875,-27.34375,-3.90625,5.37109375
1656239073158.3125,1.953125,-209.9609375,-68.84765625,-0.48828125,47.8515625
1656239073162.2188,-11.23046875,-229.00390625,-236.328125,-11.23046875,197.75390625
1656239073166.125,-16.6015625,-206.54296875,-169.43359375,-10.7421875,229.00390625
1656239073170.0312,-9.27734375,-181.640625,257.32421875,-4.39453125,-12.20703125
1656239073173.9375,-0.9765625,-205.56640625,129.39453125,-26.3671875,-32.71484375
1656239073177.8438,-1.46484375,-214.84375,-155.76171875,-26.85546875,88.8671875
1656239073181.75,-16.11328125,-202.63671875,-9.27734375,-38.0859375,15.13671875
1656239073185.6562,-12.20703125,-201.66015625,94.23828125,-37.109375,-92.28515625
1656239073189.5625,4.39453125,-209.47265625,-37.109375,-13.18359375,-55.6640625
1656239073193.4688,-7.8125,-204.1015625,-119.140625,-4.8828125,8.30078125
1656239073197.375,-11.71875,-192.3828125,1.46484375,-20.01953125,-45.41015625
1656239073201.2812,9.27734375,-199.21875,-36.62109375,-19.53125,0.9765625
1656239073205.1875,13.18359375,-207.03125,-185.546875,-0.48828125,111.328125
1656239073209.0938,-7.8125,-209.9609375,-327.1484375,-2.44140625,282.71484375
1656239073213,-18.06640625,-188.4765625,91.30859375,-13.18359375,114.2578125
1656239073216.9062,-14.6484375,-193.84765625,270.01953125,-9.27734375,-114.74609375
1656239073220.8125,-7.8125,-209.9609375,-21.484375,13.671875,-58.10546875
1656239073224.7188,-14.16015625,-201.66015625,-8.7890625,23.4375,-15.13671875
1656239073228.625,-13.671875,-191.40625,82.51953125,4.39453125,-95.703125
1656239073232.5312,-3.90625,-189.94140625,44.43359375,-2.9296875,-122.55859375
1656239073236.4375,-3.90625,-198.2421875,-77.63671875,1.953125,5.37109375
1656239073240.3438,1.46484375,-194.3359375,-8.7890625,3.90625,21.97265625
1656239073244.25,-12.20703125,-197.75390625,59.5703125,-8.7890625,-37.109375
1656239073248.1562,-11.71875,-203.61328125,-29.296875,-19.53125,-1.46484375
1656239073252.0625,-4.8828125,-218.75,-241.69921875,-8.7890625,229.4921875
1656239073255.9688,-1.46484375,-201.66015625,-225.09765625,-2.44140625,369.140625
1656239073259.875,-14.16015625,-181.15234375,234.86328125,-21.97265625,48.828125
1656239073263.7812,-30.76171875,-203.125,141.6015625,-29.78515625,-97.16796875
1656239073267.6875,-15.13671875,-201.171875,-52.734375,-14.6484375,29.78515625
1656239073271.5938,-3.41796875,-193.359375,78.61328125,1.46484375,-9.765625
1656239073275.5,-4.8828125,-195.80078125,136.71875,0,-111.328125
1656239073279.4062,-9.27734375,-198.73046875,-3.90625,-1.46484375,-66.40625
1656239073283.3125,-25.87890625,-195.80078125,-106.93359375,-6.8359375,35.64453125
1656239073287.2188,-19.04296875,-190.4296875,50.29296875,-8.30078125,15.625
1656239073291.125,6.8359375,-192.3828125,109.86328125,-11.71875,-40.52734375
1656239073295.0312,30.76171875,-205.56640625,-73.73046875,-11.23046875,104.4921875
1656239073298.9375,24.90234375,-208.0078125,-296.875,-2.9296875,301.7578125
1656239073302.8438,5.37109375,-188.4765625,-56.640625,10.7421875,100.09765625
1656239073306.75,4.8828125,-182.12890625,232.421875,7.8125,-71.2890625
1656239073310.6562,28.3203125,-198.73046875,28.3203125,4.39453125,6.8359375
1656239073314.5625,30.76171875,-198.2421875,-189.94140625,-2.9296875,205.078125
1656239073318.4688,9.765625,-177.24609375,187.01171875,7.32421875,65.4296875
1656239073322.375,0.48828125,-184.5703125,190.91796875,20.01953125,-90.8203125
1656239073326.2812,11.71875,-183.59375,-30.2734375,-16.11328125,-19.04296875
1656239073330.1875,5.859375,-170.41015625,70.80078125,-33.203125,20.5078125
1656239073334.0938,0,-166.015625,171.875,-24.90234375,-27.83203125
1656239073338,9.765625,-170.41015625,96.19140625,-20.01953125,-49.31640625
1656239073341.9062,5.37109375,-194.3359375,-207.51953125,-16.11328125,125
1656239073345.8125,-5.859375,-186.5234375,-112.79296875,-9.27734375,169.921875
1656239073349.7188,7.32421875,-170.8984375,194.3359375,1.46484375,28.3203125
1656239073353.625,23.4375,-185.05859375,110.83984375,1.46484375,3.90625
1656239073357.5312,3.41796875,-197.265625,-155.76171875,5.859375,162.109375
1656239073361.4375,-16.6015625,-169.43359375,-61.5234375,8.30078125,150.87890625
1656239073365.3438,-5.37109375,-156.25,285.64453125,14.6484375,-89.35546875
1656239073369.25,13.18359375,-164.55078125,172.36328125,1.46484375,-78.125
1656239073373.1562,20.5078125,-155.76171875,73.73046875,-19.04296875,14.16015625
1656239073377.0625,20.01953125,-154.296875,150.390625,-8.30078125,-49.31640625
1656239073380.9688,12.6953125,-165.0390625,132.8125,1.46484375,-99.609375
1656239073384.875,-2.44140625,-171.38671875,-4.8828125,11.71875,-39.0625
1656239073388.7812,5.37109375,-169.921875,-105.95703125,5.859375,120.1171875
1656239073392.6875,17.578125,-163.57421875,50.78125,10.25390625,67.3828125
1656239073396.5938,18.5546875,-155.76171875,213.37890625,20.5078125,-108.88671875
1656239073400.5,4.8828125,-168.9453125,42.96875,-2.44140625,-61.03515625
1656239073404.4062,-3.90625,-170.41015625,-210.9375,-6.34765625,181.640625
1656239073408.3125,18.06640625,-148.4375,189.94140625,1.953125,82.03125
1656239073412.2188,35.64453125,-160.64453125,260.7421875,4.8828125,17.08984375
1656239073416.125,7.32421875,-172.8515625,50.78125,6.8359375,99.609375
1656239073420.0312,-27.83203125,-164.55078125,98.14453125,-25.390625,42.48046875
1656239073423.9375,-18.06640625,-157.2265625,186.03515625,-31.25,-133.30078125
1656239073427.8438,-4.8828125,-156.25,179.19921875,-11.71875,-100.09765625
1656239073431.75,-5.859375,-159.66796875,63.96484375,-3.90625,18.5546875
1656239073435.6562,7.32421875,-151.85546875,47.36328125,-3.41796875,30.76171875
1656239073439.5625,2.9296875,-150.390625,92.28515625,-9.27734375,88.8671875
1656239073443.4688,-9.27734375,-147.4609375,185.05859375,-6.8359375,18.06640625
1656239073447.375,-10.25390625,-166.015625,-51.7578125,-2.9296875,160.64453125
1656239073451.2812,-2.9296875,-150.87890625,-24.90234375,-14.16015625,210.44921875
1656239073455.1875,1.46484375,-132.8125,365.234375,-21.484375,-64.94140625
1656239073459.0938,3.90625,-150.390625,189.453125,-23.92578125,-81.54296875
1656239073463,2.44140625,-144.04296875,35.15625,-2.9296875,27.83203125
1656239073466.9062,6.8359375,-139.6484375,113.28125,20.5078125,-3.41796875
1656239073470.8125,19.53125,-147.94921875,126.953125,-9.27734375,-50.29296875
1656239073474.7188,-4.39453125,-153.80859375,124.0234375,-23.92578125,-17.08984375
1656239073478.625,-18.5546875,-152.83203125,-54.6875,-17.08984375,134.765625
1656239073482.5312,-16.11328125,-148.92578125,-4.8828125,-29.78515625,110.83984375
1656239073486.4375,-17.08984375,-146.97265625,101.07421875,-24.4140625,10.7421875
1656239073490.3438,-4.8828125,-147.4609375,93.75,-11.71875,21.97265625
1656239073494.25,-3.90625,-159.66796875,-124.0234375,-18.06640625,252.44140625
1656239073498.1562,-11.23046875,-132.32421875,168.9453125,-22.94921875,137.20703125
1656239073502.0625,-14.6484375,-131.34765625,331.54296875,-20.01953125,-124.0234375
1656239073505.9688,-14.16015625,-146.97265625,76.66015625,-20.01953125,-53.7109375
1656239073509.875,-25.87890625,-151.3671875,111.328125,-11.71875,-60.546875
1656239073513.7812,-27.83203125,-162.59765625,192.87109375,-12.6953125,-117.1875
1656239073517.6875,-10.7421875,-168.9453125,104.98046875,-27.34375,-99.12109375
1656239073521.5938,-22.94921875,-180.6640625,-74.70703125,-34.66796875,-64.453125
1656239073525.5,-34.1796875,-177.24609375,-7.8125,-35.15625,-40.52734375
1656239073529.4062,-4.39453125,-165.52734375,26.85546875,-42.96875,30.76171875
1656239073533.3125,-11.23046875,-159.66796875,60.05859375,-42.96875,70.3125
1656239073537.2188,-25.390625,-179.6875,-116.2109375,-37.59765625,225.5859375
1656239073541.125,-11.71875,-171.38671875,-264.16015625,-34.1796875,358.3984375
1656239073545.0312,-24.90234375,-137.6953125,263.671875,-27.34375,35.64453125
1656239073548.9375,-27.34375,-148.92578125,312.01171875,-22.94921875,-113.28125
1656239073552.8438,-12.6953125,-158.69140625,54.6875,-30.2734375,-56.640625
1656239073556.75,-5.859375,-151.85546875,132.8125,-40.0390625,-119.140625
1656239073560.6562,-8.30078125,-149.4140625,148.92578125,-20.99609375,-124.51171875
1656239073564.5625,-27.83203125,-160.15625,1.46484375,-4.39453125,-55.17578125
1656239073568.4688,-26.3671875,-160.15625,-2.44140625,-30.2734375,-7.8125
1656239073572.375,-9.27734375,-155.76171875,111.328125,-39.55078125,-73.2421875
1656239073576.2812,-16.6015625,-163.57421875,36.62109375,-20.99609375,-92.28515625
1656239073580.1875,-17.08984375,-169.43359375,-71.77734375,-13.671875,44.921875
1656239073584.0938,-5.859375,-177.24609375,-272.4609375,-14.6484375,295.8984375
1656239073588,-9.27734375,-155.2734375,75.68359375,-16.6015625,184.5703125
1656239073591.9062,-7.8125,-154.78515625,382.32421875,-37.109375,-115.234375
1656239073595.8125,-6.8359375,-176.7578125,71.2890625,-34.66796875,-77.63671875
1656239073599.7188,-18.06640625,-167.96875,-87.40234375,-22.4609375,116.69921875
1656239073603.625,-21.97265625,-158.203125,142.578125,-31.73828125,-11.23046875
1656239073607.5312,-26.3671875,-164.55078125,161.1328125,-36.62109375,-131.34765625
1656239073611.4375,-32.71484375,-158.69140625,27.34375,-46.38671875,-62.98828125
1656239073615.3438,-22.4609375,-148.92578125,128.41796875,-28.80859375,-35.15625
1656239073619.25,-17.08984375,-154.296875,132.8125,0.9765625,-67.3828125
1656239073623.1562,-20.99609375,-166.015625,-47.8515625,-13.671875,-7.32421875
1656239073627.0625,-17.08984375,-175.29296875,-196.2890625,-21.484375,211.9140625
1656239073630.9688,-16.11328125,-145.5078125,-60.05859375,5.859375,305.6640625
1656239073634.875,-7.32421875,-126.953125,365.234375,1.46484375,-6.34765625
1656239073638.7812,-15.13671875,-148.4375,228.515625,-26.3671875,-128.90625
1656239073642.6875,-37.59765625,-152.34375,-47.8515625,-40.0390625,28.3203125
1656239073646.5938,-29.78515625,-156.25,-31.73828125,-48.33984375,38.57421875
1656239073650.5,-17.08984375,-151.3671875,185.05859375,-55.17578125,-70.80078125
1656239073654.4062,-21.484375,-155.76171875,91.796875,-42.48046875,-49.8046875
1656239073658.3125,-37.59765625,-170.41015625,-180.6640625,-34.1796875,115.234375
1656239073662.2188,-37.59765625,-160.64453125,36.1328125,-38.57421875,54.6875
1656239073666.125,-45.41015625,-153.80859375,138.18359375,-25.87890625,-76.66015625
1656239073670.0312,-28.80859375,-163.57421875,-66.89453125,-15.625,97.16796875
1656239073673.9375,-27.83203125,-159.1796875,-163.57421875,-34.1796875,264.6484375
1656239073677.8438,-27.34375,-138.18359375,118.1640625,-39.55078125,25.87890625
1656239073681.75,-3.41796875,-140.13671875,189.94140625,-24.4140625,-140.13671875
1656239073685.6562,-7.8125,-157.2265625,-51.26953125,-22.4609375,0
1656239073689.5625,-26.85546875,-154.296875,-128.41796875,-26.3671875,134.27734375
1656239073693.4688,-33.69140625,-129.39453125,207.51953125,-26.85546875,13.18359375
1656239073697.375,-29.78515625,-133.30078125,195.80078125,-23.92578125,-84.47265625
1656239073701.2812,-15.13671875,-148.92578125,-58.59375,-11.23046875,-13.18359375
1656239073705.1875,9.27734375,-144.53125,-78.61328125,-7.8125,56.15234375
1656239073709.0938,0.9765625,-122.55859375,120.60546875,-4.8828125,-37.59765625
1656239073713,-8.7890625,-119.62890625,203.61328125,-13.18359375,-107.91015625
1656239073716.9062,-18.06640625,-154.296875,-150.87890625,-9.27734375,193.359375
1656239073720.8125,-27.83203125,-148.92578125,-291.9921875,-4.8828125,414.0625
1656239073724.7188,-25.390625,-109.375,214.35546875,-29.78515625,79.1015625
1656239073728.625,-22.4609375,-120.60546875,211.42578125,-31.73828125,-97.16796875
1656239073732.5312,-10.25390625,-138.671875,-104.98046875,-14.16015625,50.78125
1656239073736.4375,-1.46484375,-121.09375,66.40625,-21.97265625,22.4609375
1656239073740.3438,-17.08984375,-119.140625,147.4609375,-27.34375,-104.00390625
1656239073744.25,-29.296875,-128.90625,-17.578125,-28.80859375,-77.63671875
1656239073748.1562,-35.64453125,-129.39453125,-32.2265625,-28.3203125,-8.30078125
1656239073752.0625,-13.671875,-120.60546875,132.32421875,-26.3671875,-1.46484375
1656239073755.9688,-1.46484375,-126.953125,137.6953125,-22.94921875,-43.9453125
1656239073759.875,-6.8359375,-140.13671875,-43.9453125,-9.27734375,-66.89453125
1656239073763.7812,-10.25390625,-134.27734375,-121.58203125,-5.859375,26.3671875
1656239073767.6875,7.8125,-131.8359375,-28.3203125,-1.953125,91.30859375
1656239073771.5938,7.32421875,-133.7890625,103.515625,6.8359375,63.96484375
1656239073775.5,-21.97265625,-146.484375,57.12890625,-13.18359375,60.05859375
1656239073779.4062,-24.4140625,-171.875,-311.5234375,-7.32421875,287.109375
1656239073783.3125,-7.32421875,-147.4609375,33.203125,-18.06640625,198.73046875
1656239073787.2188,-16.11328125,-141.6015625,339.35546875,-50.78125,-95.21484375
1656239073791.125,-8.30078125,-155.2734375,112.79296875,-31.25,-62.01171875
1656239073795.0312,-4.39453125,-146.97265625,134.27734375,-19.04296875,-11.71875
1656239073798.9375,-15.625,-148.92578125,104.98046875,-29.78515625,-67.87109375
1656239073802.8438,-8.7890625,-152.83203125,10.25390625,-32.71484375,-109.86328125
1656239073806.75,-24.90234375,-161.62109375,-48.828125,-12.6953125,-9.765625
1656239073810.6562,-16.11328125,-156.25,-41.9921875,5.37109375,72.265625
1656239073814.5625,4.8828125,-143.5546875,38.0859375,-5.859375,80.56640625
1656239073818.4688,-18.5546875,-137.20703125,123.046875,-18.06640625,-5.859375
1656239073822.375,-12.20703125,-159.1796875,-208.49609375,-8.30078125,117.1875
1656239073826.2812,0.48828125,-145.5078125,-301.26953125,-9.27734375,296.38671875
1656239073830.1875,3.41796875,-110.3515625,277.83203125,-19.04296875,16.11328125
1656239073834.0938,-8.7890625,-138.18359375,216.796875,-18.5546875,-27.83203125
1656239073838,-37.109375,-141.11328125,3.41796875,-10.25390625,62.01171875
1656239073841.9062,-24.4140625,-128.90625,75.1953125,2.44140625,-105.46875
1656239073845.8125,-19.53125,-130.859375,90.33203125,-15.13671875,-171.875
1656239073849.7188,-13.18359375,-138.18359375,50.78125,-5.37109375,-99.609375
1656239073853.625,-7.8125,-136.71875,25.390625,0,-11.71875
1656239073857.5312,-31.25,-141.6015625,-24.4140625,-5.859375,34.66796875
1656239073861.4375,-25.87890625,-149.4140625,8.30078125,-1.953125,53.7109375
1656239073865.3438,-21.97265625,-161.62109375,-13.671875,-11.71875,70.80078125
1656239073869.25,1.46484375,-167.48046875,-218.26171875,-3.41796875,279.296875
1656239073873.1562,0.9765625,-125,150.390625,-23.92578125,113.28125
1656239073877.0625,-48.33984375,-124.0234375,274.4140625,-49.8046875,-96.6796875
1656239073880.9688,-62.98828125,-153.3203125,-35.64453125,-32.2265625,71.2890625
1656239073884.875,-13.671875,-137.20703125,41.50390625,-18.06640625,93.75
1656239073888.7812,11.23046875,-125.9765625,204.58984375,-10.7421875,-22.4609375
1656239073892.6875,-3.41796875,-143.5546875,136.71875,0,-58.59375
1656239073896.5938,-18.5546875,-155.2734375,-71.77734375,-13.671875,43.9453125
1656239073900.5,-47.8515625,-142.08984375,-6.34765625,-13.671875,101.5625
1656239073904.4062,-46.38671875,-139.16015625,33.203125,2.9296875,77.63671875
1656239073908.3125,-40.0390625,-144.53125,15.625,-0.48828125,62.98828125
1656239073912.2188,-30.76171875,-148.4375,-56.640625,-13.671875,163.57421875
1656239073916.125,-11.71875,-126.46484375,-57.6171875,-10.25390625,218.26171875
1656239073920.0312,-8.30078125,-112.79296875,257.32421875,-1.953125,-62.01171875
1656239073923.9375,-20.5078125,-130.859375,159.1796875,-4.8828125,-105.46875
1656239073927.8438,-50.29296875,-133.7890625,-14.6484375,-14.6484375,-10.7421875
1656239073931.75,-36.1328125,-129.39453125,139.6484375,-2.9296875,-58.59375
1656239073935.6562,-9.27734375,-131.8359375,166.50390625,0.9765625,-69.3359375
1656239073939.5625,-52.24609375,-145.99609375,-81.0546875,-22.94921875,58.10546875
1656239073943.4688,-40.52734375,-136.23046875,-146.484375,-27.34375,172.8515625
1656239073947.375,-44.43359375,-114.2578125,143.5546875,-22.4609375,24.90234375
1656239073951.2812,-44.43359375,-134.765625,141.6015625,-20.5078125,-67.87109375
1656239073955.1875,-44.921875,-143.5546875,-41.50390625,-19.53125,60.05859375
1656239073959.0938,-60.05859375,-149.90234375,-199.70703125,-15.13671875,276.85546875
1656239073963,-41.9921875,-115.72265625,168.9453125,-42.96875,129.8828125
1656239073966.9062,-33.69140625,-114.74609375,312.5,-33.203125,-103.02734375
1656239073970.8125,5.859375,-138.18359375,93.26171875,-7.8125,-21.97265625
1656239073974.7188,6.8359375,-128.90625,102.5390625,-38.57421875,11.71875
1656239073978.625,-15.625,-112.79296875,139.6484375,-17.08984375,-52.734375
1656239073982.5312,-23.92578125,-118.65234375,78.125,-6.8359375,-79.58984375
1656239073986.4375,-25.87890625,-141.6015625,-8.30078125,-35.64453125,14.16015625
1656239073990.3438,-42.48046875,-146.484375,91.30859375,-44.921875,43.45703125
1656239073994.25,-24.90234375,-145.99609375,118.1640625,-19.04296875,2.9296875
1656239073998.1562,-50.78125,-145.99609375,26.85546875,-20.99609375,12.20703125
1656239074002.0625,-84.47265625,-161.1328125,-181.15234375,-18.5546875,149.90234375
1656239074005.9688,-21.484375,-142.578125,-211.42578125,5.37109375,375.9765625
1656239074009.875,-2.9296875,-108.88671875,309.5703125,6.8359375,79.1015625
1656239074013.7812,-24.4140625,-137.20703125,255.37109375,20.5078125,-125.48828125
1656239074017.6875,-34.66796875,-147.4609375,-7.32421875,18.5546875,51.7578125
1656239074021.5938,-26.85546875,-128.41796875,108.88671875,-9.765625,5.859375
1656239074025.5,-42.96875,-127.9296875,153.80859375,4.8828125,-81.0546875
1656239074029.4062,-46.875,-133.30078125,51.26953125,12.20703125,-56.640625
1656239074033.3125,-5.859375,-131.8359375,2.9296875,-7.32421875,10.25390625
1656239074037.2188,19.53125,-122.55859375,111.328125,4.39453125,-25.390625
1656239074041.125,-9.765625,-132.8125,130.859375,5.859375,-102.05078125
1656239074045.0312,-64.453125,-148.4375,-50.29296875,9.27734375,59.08203125
1656239074048.9375,-31.25,-154.78515625,-266.6015625,11.71875,344.7265625
1656239074052.8438,-28.3203125,-126.953125,104.00390625,10.25390625,144.04296875
1656239074056.75,-25.390625,-122.55859375,269.53125,37.59765625,-50.78125
1656239074060.6562,-6.34765625,-138.18359375,10.25390625,26.3671875,34.66796875
1656239074064.5625,-33.69140625,-123.046875,-45.41015625,-6.8359375,140.625
1656239074068.4688,-35.64453125,-112.3046875,206.0546875,24.4140625,-17.08984375
1656239074072.375,-40.52734375,-123.53515625,210.44921875,19.53125,-119.62890625
1656239074076.2812,-14.16015625,-135.7421875,51.26953125,7.8125,-39.0625
1656239074080.1875,-6.34765625,-122.55859375,60.546875,-6.8359375,-44.921875
1656239074084.0938,5.37109375,-111.328125,126.46484375,-12.6953125,-92.28515625
1656239074088,16.11328125,-120.60546875,99.609375,5.859375,-118.65234375
1656239074091.9062,-17.08984375,-140.13671875,-58.10546875,4.8828125,36.1328125
1656239074095.8125,-22.4609375,-121.09375,49.31640625,19.53125,140.13671875
1656239074099.7188,-33.69140625,-103.02734375,250,30.2734375,-31.73828125
1656239074103.625,-31.73828125,-120.1171875,160.15625,7.8125,-74.70703125
1656239074107.5312,8.7890625,-145.99609375,-97.16796875,20.5078125,94.23828125
1656239074111.4375,-9.765625,-130.859375,46.38671875,28.80859375,64.94140625
1656239074115.3438,-33.203125,-113.76953125,221.19140625,10.7421875,-72.75390625
1656239074119.25,-34.66796875,-125,82.03125,16.6015625,-27.83203125
1656239074123.1562,-46.875,-135.7421875,-104.98046875,11.71875,142.08984375
1656239074127.0625,-9.27734375,-121.09375,82.51953125,-4.39453125,48.828125
1656239074130.9688,6.8359375,-122.0703125,208.0078125,14.6484375,-86.42578125
1656239074134.875,-17.08984375,-135.7421875,62.5,33.203125,-16.11328125
1656239074138.7812,0.48828125,-131.8359375,-69.82421875,27.34375,144.53125
1656239074142.6875,3.90625,-118.65234375,-3.90625,10.25390625,159.66796875
1656239074146.5938,-1.953125,-89.35546875,184.5703125,6.34765625,-11.71875
1656239074150.5,22.94921875,-95.703125,31.73828125,27.83203125,11.71875
1656239074154.4062,4.8828125,-109.86328125,-208.0078125,24.4140625,224.609375
1656239074158.3125,-12.20703125,-81.54296875,154.78515625,1.953125,51.26953125
1656239074162.2188,-12.6953125,-100.09765625,162.109375,-4.8828125,-87.890625
1656239074166.125,-6.34765625,-125,-55.17578125,20.99609375,-26.3671875
1656239074170.0312,-3.41796875,-111.81640625,17.08984375,32.71484375,5.859375
1656239074173.9375,-27.34375,-106.93359375,45.8984375,7.8125,40.0390625
1656239074177.8438,-16.6015625,-101.5625,89.35546875,-6.8359375,-18.5546875
1656239074181.75,6.8359375,-109.86328125,-63.96484375,-16.11328125,47.8515625
1656239074185.6562,3.90625,-109.375,-127.44140625,7.8125,141.11328125
1656239074189.5625,-9.765625,-97.16796875,67.3828125,11.71875,49.8046875
1656239074193.4688,-19.53125,-104.98046875,156.73828125,6.34765625,-38.0859375
1656239074197.375,18.5546875,-120.60546875,-62.98828125,24.90234375,55.17578125
1656239074201.2812,4.39453125,-101.5625,3.90625,9.27734375,15.625
1656239074205.1875,-22.4609375,-90.8203125,139.6484375,8.30078125,-77.63671875
1656239074209.0938,-13.671875,-109.375,30.76171875,9.765625,-47.8515625
1656239074213,-7.8125,-125.9765625,-207.03125,-8.7890625,192.3828125
1656239074216.9062,-30.2734375,-95.21484375,-20.99609375,2.9296875,206.54296875
1656239074220.8125,-37.59765625,-96.19140625,207.51953125,8.30078125,-80.56640625
1656239074224.7188,-25.390625,-112.3046875,7.8125,1.953125,-100.09765625
1656239074228.625,-17.08984375,-100.5859375,-38.0859375,-0.9765625,0.48828125
1656239074232.5312,-9.765625,-103.515625,1.953125,15.625,30.76171875
1656239074236.4375,-5.859375,-104.98046875,20.5078125,8.7890625,24.90234375
1656239074240.3438,-17.578125,-106.93359375,-37.109375,-5.859375,80.56640625
1656239074244.25,-20.01953125,-125,-323.2421875,8.30078125,301.7578125
1656239074248.1562,9.27734375,-90.33203125,22.4609375,0.48828125,201.171875
1656239074252.0625,2.44140625,-81.0546875,311.03515625,10.7421875,-79.1015625
1656239074255.9688,-25.87890625,-107.421875,47.36328125,12.6953125,-2.44140625
1656239074259.875,-27.83203125,-102.05078125,17.578125,3.41796875,-15.13671875
1656239074263.7812,-15.625,-100.09765625,44.921875,12.20703125,-102.5390625
1656239074267.6875,-15.13671875,-105.46875,-25.87890625,2.9296875,-79.1015625
1656239074271.5938,-28.3203125,-109.375,-71.77734375,-15.13671875,-25.87890625
1656239074275.5,-15.13671875,-115.72265625,16.6015625,-4.39453125,-37.59765625
1656239074279.4062,-33.203125,-121.58203125,-63.4765625,-17.08984375,14.16015625
1656239074283.3125,-26.3671875,-121.58203125,-121.09375,-19.53125,4.39453125
1656239074287.2188,-10.25390625,-137.20703125,-240.72265625,-22.4609375,134.27734375
1656239074291.125,-12.20703125,-127.9296875,-222.65625,-19.04296875,381.34765625
1656239074295.0312,-12.20703125,-96.19140625,264.6484375,-3.41796875,90.8203125
1656239074298.9375,-29.78515625,-117.67578125,141.11328125,-17.578125,-61.03515625
1656239074302.8438,-11.23046875,-135.7421875,-187.01171875,-17.08984375,47.36328125
1656239074306.75,-8.7890625,-125.9765625,-28.80859375,-13.18359375,-35.15625
1656239074310.6562,-1.46484375,-122.0703125,76.66015625,-8.7890625,-103.515625
1656239074314.5625,-15.13671875,-125.9765625,-29.296875,-9.765625,-47.8515625
1656239074318.4688,-15.13671875,-125,-121.09375,-21.97265625,-23.4375
1656239074322.375,-8.30078125,-119.62890625,-68.359375,-21.484375,-50.78125
1656239074326.2812,-32.71484375,-126.46484375,-104.4921875,-24.90234375,23.4375
1656239074330.1875,-18.5546875,-135.7421875,-125.48828125,-17.08984375,125.9765625
1656239074334.0938,-28.3203125,-145.5078125,-273.92578125,-0.9765625,274.90234375
1656239074338,-40.0390625,-114.74609375,38.0859375,-2.9296875,102.5390625
1656239074341.9062,-7.8125,-116.2109375,188.4765625,-6.34765625,-103.02734375
1656239074345.8125,-5.859375,-131.34765625,-94.7265625,-16.6015625,-32.71484375
1656239074349.7188,-43.45703125,-120.60546875,-96.19140625,-31.25,20.01953125
1656239074353.625,-49.31640625,-111.328125,67.87109375,-18.5546875,-53.7109375
1656239074357.5312,-4.8828125,-114.2578125,39.55078125,-21.484375,-141.11328125
1656239074361.4375,-6.34765625,-134.765625,-140.625,-1.46484375,-5.859375
1656239074365.3438,-31.73828125,-132.8125,-75.68359375,12.6953125,79.58984375
1656239074369.25,-12.6953125,-121.58203125,96.6796875,-3.41796875,-43.45703125
1656239074373.1562,-23.92578125,-134.765625,12.20703125,-3.90625,-34.66796875
1656239074377.0625,-49.8046875,-150.390625,-194.82421875,-19.53125,245.1171875
1656239074380.9688,-11.71875,-114.2578125,-159.1796875,-32.2265625,302.24609375
1656239074384.875,-5.37109375,-96.19140625,153.3203125,-10.7421875,-64.94140625
1656239074388.7812,-19.04296875,-126.46484375,97.16796875,-3.41796875,-161.1328125
1656239074392.6875,-9.765625,-128.90625,-55.17578125,-20.01953125,-72.75390625
1656239074396.5938,-10.7421875,-109.86328125,47.8515625,-17.578125,-60.546875
1656239074400.5,-26.85546875,-110.83984375,83.49609375,-17.578125,-74.70703125
1656239074404.4062,-20.99609375,-128.41796875,-104.98046875,-4.8828125,-33.203125
1656239074408.3125,-17.08984375,-123.046875,-212.40234375,13.18359375,88.8671875
1656239074412.2188,-1.953125,-106.93359375,38.57421875,10.25390625,-23.4375
1656239074416.125,-6.8359375,-110.83984375,106.4453125,-3.41796875,-164.0625
1656239074420.0312,-24.90234375,-128.90625,-143.5546875,-15.13671875,-47.8515625
1656239074423.9375,-27.83203125,-151.85546875,-430.17578125,-20.01953125,331.0546875
1656239074427.8438,-20.5078125,-108.3984375,-18.5546875,-14.6484375,180.17578125
1656239074431.75,-3.41796875,-91.796875,315.91796875,0.48828125,-123.53515625
1656239074435.6562,-2.9296875,-124.0234375,60.05859375,5.37109375,-69.82421875
1656239074439.5625,-18.5546875,-118.1640625,-11.71875,8.7890625,-33.203125
1656239074443.4688,-31.25,-109.86328125,17.08984375,0.9765625,-62.5
1656239074447.375,-9.27734375,-113.28125,3.41796875,3.41796875,-64.94140625
1656239074451.2812,-7.8125,-124.0234375,-53.7109375,-12.20703125,-18.06640625
1656239074455.1875,-22.4609375,-122.55859375,-9.765625,-32.2265625,12.6953125
1656239074459.0938,-30.76171875,-120.1171875,24.4140625,0.48828125,-30.2734375
1656239074463,-24.4140625,-134.765625,-72.265625,-4.8828125,-49.31640625
1656239074466.9062,-17.578125,-151.85546875,-209.47265625,-41.50390625,51.7578125
1656239074470.8125,-19.53125,-137.20703125,-111.328125,-33.69140625,122.55859375
1656239074474.7188,-32.71484375,-125.9765625,-3.41796875,-35.64453125,84.9609375
1656239074478.625,-38.57421875,-127.44140625,-3.41796875,-33.203125,8.30078125
1656239074482.5312,-8.30078125,-154.78515625,-267.08984375,-16.11328125,151.3671875
1656239074486.4375,-20.5078125,-126.46484375,-254.8828125,-4.39453125,302.734375
1656239074490.3438,-43.9453125,-88.8671875,221.19140625,-9.765625,-23.4375
1656239074494.25,-40.52734375,-127.44140625,104.4921875,-20.5078125,-86.9140625
1656239074498.1562,-10.7421875,-137.20703125,-191.89453125,-31.25,87.40234375
1656239074502.0625,-21.97265625,-124.0234375,-61.03515625,-40.52734375,-11.71875
1656239074505.9688,-35.64453125,-135.7421875,20.99609375,-22.94921875,-154.296875
1656239074509.875,-28.80859375,-142.578125,-62.98828125,-22.4609375,-87.40234375
1656239074513.7812,-25.390625,-135.25390625,-167.48046875,-33.203125,84.47265625
1656239074517.6875,-21.484375,-124.51171875,-95.703125,-22.94921875,18.5546875
1656239074521.5938,-25.87890625,-115.234375,17.08984375,-9.765625,-64.453125
1656239074525.5,-21.484375,-131.34765625,-120.60546875,-20.01953125,61.03515625
1656239074529.4062,0.9765625,-139.6484375,-329.58984375,-7.8125,305.17578125
1656239074533.3125,-10.7421875,-97.65625,77.1484375,1.953125,126.46484375
1656239074537.2188,-17.578125,-107.91015625,214.35546875,-16.11328125,-115.234375
1656239074541.125,-26.85546875,-140.13671875,-104.4921875,-21.97265625,-63.96484375
1656239074545.0312,-47.8515625,-128.90625,-66.40625,-18.06640625,-68.84765625
1656239074548.9375,-43.9453125,-121.09375,57.12890625,-18.5546875,-98.6328125
1656239074552.8438,-26.3671875,-125,25.390625,-26.85546875,-86.9140625
1656239074556.75,-22.94921875,-136.71875,-107.421875,-24.4140625,3.90625
1656239074560.6562,-35.64453125,-141.11328125,-193.84765625,-8.7890625,83.984375
1656239074564.5625,-25.390625,-137.6953125,-121.58203125,-0.48828125,68.84765625
1656239074568.4688,-14.6484375,-136.23046875,-3.41796875,3.90625,5.859375
1656239074572.375,-17.578125,-156.73828125,-160.15625,2.9296875,126.46484375
1656239074576.2812,-22.94921875,-130.37109375,-120.1171875,-12.6953125,240.72265625
1656239074580.1875,-30.2734375,-118.1640625,157.2265625,-32.2265625,-41.9921875
1656239074584.0938,-20.01953125,-155.2734375,-46.875,-24.90234375,-63.96484375
1656239074588,-11.71875,-155.76171875,-188.4765625,-21.484375,145.01953125
1656239074591.9062,-28.3203125,-131.8359375,74.21875,-32.2265625,-18.06640625
1656239074595.8125,-49.31640625,-138.671875,132.32421875,-19.04296875,-196.77734375
1656239074599.7188,-51.7578125,-149.90234375,-58.59375,-27.83203125,-98.14453125
1656239074603.625,-37.109375,-145.5078125,-122.55859375,-39.0625,-52.24609375
1656239074607.5312,-13.671875,-143.06640625,-90.33203125,-5.37109375,-0.9765625
1656239074611.4375,-17.578125,-135.25390625,12.20703125,-13.18359375,29.296875
1656239074615.3438,-32.2265625,-142.578125,-4.8828125,-34.66796875,18.06640625
1656239074619.25,-36.1328125,-157.71484375,-276.3671875,-23.92578125,257.8125
1656239074623.1562,-40.52734375,-123.53515625,62.98828125,-39.0625,149.4140625
1656239074627.0625,-36.62109375,-127.44140625,204.58984375,-36.1328125,-98.14453125
1656239074630.9688,-37.59765625,-149.4140625,-30.76171875,-39.0625,-67.3828125
1656239074634.875,-26.3671875,-140.625,45.41015625,-45.41015625,-71.77734375
1656239074638.7812,-6.8359375,-133.30078125,56.15234375,-23.4375,-83.984375
1656239074642.6875,-24.4140625,-142.08984375,-96.19140625,-24.4140625,-81.54296875
1656239074646.5938,-37.59765625,-144.53125,-136.23046875,-36.1328125,-8.7890625
1656239074650.5,-35.15625,-125.9765625,21.484375,-30.2734375,27.83203125
1656239074654.4062,-28.80859375,-141.6015625,63.96484375,-23.92578125,21.484375
1656239074658.3125,-20.5078125,-160.15625,-16.11328125,-19.04296875,46.38671875
1656239074662.2188,-21.97265625,-166.015625,-169.921875,-4.39453125,166.50390625
1656239074666.125,-36.62109375,-142.578125,-116.69921875,-15.625,250.9765625
1656239074670.0312,-36.1328125,-128.41796875,277.34375,-25.87890625,16.11328125
1656239074673.9375,-22.4609375,-154.78515625,160.15625,-17.578125,-48.33984375
1656239074677.8438,-21.97265625,-163.0859375,-86.42578125,-5.37109375,50.78125
1656239074681.75,-26.3671875,-149.4140625,-16.11328125,-17.08984375,-28.80859375
1656239074685.6562,-32.71484375,-150.390625,21.97265625,-26.85546875,-127.9296875
1656239074689.5625,-19.04296875,-155.2734375,-7.8125,-16.11328125,-61.5234375
1656239074693.4688,-12.6953125,-143.5546875,-19.53125,-16.6015625,23.92578125
1656239074697.375,-13.18359375,-145.01953125,20.99609375,-19.04296875,-12.20703125
1656239074701.2812,-16.11328125,-161.62109375,-62.01171875,-7.32421875,51.7578125
1656239074705.1875,-25.390625,-166.50390625,-156.25,-15.13671875,132.32421875
1656239074709.0938,-25.87890625,-154.78515625,-85.44921875,-25.390625,138.671875
1656239074713,-23.92578125,-146.484375,157.2265625,-29.296875,15.13671875
1656239074716.9062,-33.203125,-164.0625,131.8359375,-30.2734375,-48.33984375
1656239074720.8125,-35.15625,-192.3828125,-113.28125,-24.90234375,36.62109375
1656239074724.7188,-30.2734375,-186.03515625,-153.80859375,-35.64453125,95.21484375
1656239074728.625,-30.76171875,-186.03515625,96.6796875,-29.296875,-27.34375
1656239074732.5312,-34.1796875,-205.56640625,157.71484375,-22.94921875,-155.76171875
1656239074736.4375,-23.92578125,-258.30078125,-134.27734375,-20.01953125,0
1656239074740.3438,-29.78515625,-282.71484375,-291.9921875,-7.8125,247.0703125
1656239074744.25,-17.578125,-292.48046875,116.2109375,-14.6484375,24.4140625
1656239074748.1562,-19.04296875,-372.55859375,128.41796875,-17.578125,-3.90625
1656239074752.0625,-34.66796875,-415.52734375,-168.45703125,-17.578125,266.11328125
1656239074755.9688,-30.76171875,-377.44140625,-178.22265625,-20.99609375,263.18359375
1656239074759.875,-22.4609375,-349.609375,109.86328125,-21.97265625,0
1656239074763.7812,-11.71875,-367.67578125,95.21484375,-16.11328125,-68.359375
1656239074767.6875,-21.97265625,-378.41796875,-136.23046875,-8.7890625,70.3125
1656239074771.5938,-14.16015625,-329.1015625,48.33984375,-19.53125,34.66796875
1656239074775.5,-11.23046875,-310.546875,141.6015625,-33.69140625,-84.9609375
1656239074779.4062,-27.34375,-327.63671875,-52.24609375,-28.3203125,-33.69140625
1656239074783.3125,-26.3671875,-317.3828125,-113.28125,-19.53125,36.1328125
1656239074787.2188,-27.83203125,-304.19921875,-27.83203125,0,-57.12890625
1656239074791.125,-37.109375,-297.8515625,34.66796875,-7.8125,-168.45703125
1656239074795.0312,-18.5546875,-306.15234375,-125,-29.296875,6.8359375
1656239074798.9375,8.30078125,-296.38671875,-311.5234375,-31.25,304.19921875
1656239074802.8438,4.8828125,-239.2578125,46.875,-39.0625,133.30078125
1656239074806.75,4.39453125,-243.1640625,166.015625,-37.109375,-82.03125
1656239074810.6562,14.16015625,-254.8828125,-67.3828125,-25.390625,-18.5546875
1656239074814.5625,4.39453125,-240.234375,-98.14453125,-28.3203125,120.1171875
1656239074818.4688,-15.13671875,-240.72265625,-15.13671875,-11.23046875,123.53515625
1656239074822.375,-28.80859375,-241.2109375,30.2734375,-5.859375,1.46484375
1656239074826.2812,-32.71484375,-250.48828125,-98.6328125,-27.83203125,-18.06640625
1656239074830.1875,-29.296875,-217.7734375,-65.4296875,-12.6953125,23.92578125
1656239074834.0938,-18.5546875,-206.0546875,93.75,-16.11328125,-73.2421875
1656239074838,-22.94921875,-216.796875,28.3203125,-29.78515625,-104.4921875
1656239074841.9062,-31.73828125,-240.72265625,-186.03515625,-19.53125,166.015625
1656239074845.8125,-38.0859375,-216.30859375,-149.4140625,-28.3203125,252.44140625
1656239074849.7188,-17.578125,-175.29296875,112.79296875,-42.96875,-53.7109375
1656239074853.625,-3.41796875,-191.89453125,48.33984375,-26.3671875,-186.5234375
1656239074857.5312,-16.6015625,-215.8203125,-217.28515625,-3.90625,14.16015625
1656239074861.4375,-6.34765625,-174.8046875,-45.41015625,6.8359375,41.015625
1656239074865.3438,-3.90625,-168.45703125,153.3203125,-6.8359375,-117.67578125
1656239074869.25,-12.6953125,-193.84765625,32.2265625,-18.5546875,-63.4765625
1656239074873.1562,-4.8828125,-188.4765625,-78.61328125,-2.44140625,23.92578125
1656239074877.0625,-5.859375,-182.12890625,-85.9375,2.9296875,18.5546875
1656239074880.9688,-13.18359375,-163.0859375,34.1796875,-8.7890625,-54.19921875
1656239074884.875,-2.9296875,-180.6640625,-49.31640625,-15.13671875,-18.5546875
1656239074888.7812,-5.37109375,-213.37890625,-373.53515625,-10.7421875,256.34765625
1656239074892.6875,-11.71875,-167.96875,-104.00390625,-6.34765625,257.32421875
1656239074896.5938,-10.7421875,-145.01953125,183.59375,2.9296875,22.94921875
1656239074900.5,-8.30078125,-173.828125,-37.59765625,-13.671875,-27.83203125
1656239074904.4062,-4.39453125,-169.921875,-210.44921875,-28.80859375,139.6484375
1656239074908.3125,-7.8125,-145.5078125,87.40234375,-32.2265625,12.6953125
1656239074912.2188,-10.7421875,-163.0859375,132.32421875,-27.34375,-85.44921875
1656239074916.125,-20.5078125,-174.8046875,-31.25,-23.92578125,0.9765625
1656239074920.0312,-8.30078125,-164.55078125,-3.41796875,-17.578125,6.8359375
1656239074923.9375,-3.90625,-147.94921875,15.13671875,0,-66.40625
1656239074927.8438,3.41796875,-137.6953125,26.3671875,-6.8359375,-57.6171875
1656239074931.75,4.39453125,-156.73828125,-53.22265625,-23.92578125,12.20703125
1656239074935.6562,-2.44140625,-149.4140625,-75.1953125,-1.953125,69.82421875
1656239074939.5625,-3.90625,-138.671875,-32.71484375,3.90625,97.65625
1656239074943.4688,-0.9765625,-142.578125,-1.953125,-9.27734375,70.80078125
1656239074947.375,-5.37109375,-178.7109375,-151.85546875,-10.7421875,209.9609375
1656239074951.2812,0.48828125,-166.50390625,-274.4140625,-14.16015625,435.05859375
1656239074955.1875,5.37109375,-96.19140625,252.44140625,-15.13671875,145.01953125
1656239074959.0938,-3.90625,-131.8359375,270.01953125,-15.13671875,-79.1015625
1656239074963,-14.6484375,-155.76171875,-65.4296875,-11.71875,48.33984375
1656239074966.9062,-16.6015625,-135.25390625,61.03515625,-8.7890625,-37.109375
1656239074970.8125,-3.90625,-142.08984375,139.6484375,-11.23046875,-102.05078125
1656239074974.7188,5.859375,-143.06640625,58.10546875,-19.04296875,-30.76171875
1656239074978.625,3.90625,-129.39453125,-32.2265625,-2.9296875,40.0390625
1656239074982.5312,-1.953125,-136.23046875,-58.59375,10.25390625,117.1875
1656239074986.4375,0.9765625,-134.27734375,3.41796875,2.9296875,28.80859375
1656239074990.3438,14.6484375,-135.7421875,44.921875,3.41796875,27.83203125
1656239074994.25,15.13671875,-160.15625,-229.4921875,12.20703125,407.2265625
1656239074998.1562,7.32421875,-94.7265625,30.76171875,10.7421875,246.58203125
1656239075002.0625,6.8359375,-88.37890625,322.75390625,4.8828125,-135.7421875
1656239075005.9688,14.6484375,-140.625,90.8203125,5.37109375,-92.7734375
1656239075009.875,12.20703125,-134.27734375,70.80078125,-13.671875,-117.1875
1656239075013.7812,5.37109375,-108.88671875,209.9609375,-16.6015625,-129.8828125
1656239075017.6875,6.34765625,-120.1171875,130.859375,-1.953125,-64.453125
1656239075021.5938,8.30078125,-140.13671875,-57.12890625,-8.7890625,-19.04296875
1656239075025.5,11.23046875,-124.0234375,22.94921875,11.23046875,8.7890625
1656239075029.4062,15.13671875,-125.48828125,24.90234375,30.76171875,60.546875
1656239075033.3125,10.25390625,-124.51171875,30.76171875,8.7890625,2.44140625
1656239075037.2188,8.30078125,-149.90234375,-103.02734375,3.90625,131.34765625
1656239075041.125,17.08984375,-117.1875,-124.51171875,7.8125,257.8125
1656239075045.0312,16.11328125,-77.63671875,229.00390625,7.32421875,-17.578125
1656239075048.9375,18.5546875,-116.69921875,125.48828125,11.23046875,-63.96484375
1656239075052.8438,26.3671875,-124.51171875,-81.54296875,7.8125,106.4453125
1656239075056.75,20.99609375,-94.7265625,69.3359375,11.23046875,17.08984375
1656239075060.6562,15.625,-98.6328125,118.65234375,21.484375,-86.9140625
1656239075064.5625,11.23046875,-127.9296875,-39.0625,19.04296875,-20.99609375
1656239075068.4688,3.90625,-117.1875,-120.60546875,16.6015625,35.64453125
1656239075072.375,1.953125,-95.21484375,64.453125,13.18359375,-18.06640625
1656239075076.2812,8.30078125,-118.65234375,20.01953125,9.765625,-2.44140625
1656239075080.1875,6.8359375,-133.7890625,-169.43359375,8.30078125,81.0546875
1656239075084.0938,20.99609375,-146.484375,-332.03125,13.18359375,258.7890625
1656239075088,28.3203125,-99.609375,43.9453125,2.9296875,139.16015625
1656239075091.9062,27.83203125,-97.65625,247.0703125,-1.953125,-104.4921875
1656239075095.8125,28.80859375,-128.90625,-17.578125,8.7890625,-43.45703125
1656239075099.7188,17.578125,-109.86328125,-50.29296875,8.30078125,35.15625
1656239075103.625,11.23046875,-103.515625,14.16015625,16.6015625,-25.390625
1656239075107.5312,12.6953125,-123.046875,-37.109375,23.92578125,-97.65625
1656239075111.4375,12.6953125,-135.7421875,-139.6484375,-4.8828125,28.80859375
1656239075115.3438,4.8828125,-116.2109375,-41.50390625,-22.94921875,36.62109375
1656239075119.25,2.44140625,-111.328125,-7.32421875,-11.71875,-91.796875
1656239075123.1562,6.34765625,-129.39453125,-145.5078125,-15.13671875,-8.30078125
1656239075127.0625,20.01953125,-153.80859375,-309.5703125,-6.8359375,198.73046875
1656239075130.9688,28.80859375,-130.37109375,-337.40234375,7.32421875,393.06640625
1656239075134.875,12.6953125,-75.1953125,151.85546875,2.9296875,91.796875
1656239075138.7812,-5.37109375,-108.88671875,136.23046875,11.71875,-108.3984375
1656239075142.6875,-3.90625,-132.32421875,-174.31640625,3.41796875,-2.44140625
1656239075146.5938,-4.8828125,-121.58203125,-89.84375,-4.8828125,-37.59765625
1656239075150.5,9.765625,-120.1171875,5.37109375,-5.37109375,-112.79296875
1656239075154.4062,8.7890625,-124.0234375,-57.12890625,-0.9765625,-40.0390625
1656239075158.3125,-6.34765625,-122.0703125,-181.640625,-0.9765625,64.94140625
1656239075162.2188,-3.41796875,-112.79296875,-146.484375,-10.7421875,20.01953125
1656239075166.125,21.97265625,-117.67578125,-133.7890625,-5.859375,-37.59765625
1656239075170.0312,40.52734375,-138.18359375,-259.27734375,6.8359375,44.43359375
1656239075173.9375,37.59765625,-155.76171875,-460.9375,8.7890625,327.63671875
1656239075177.8438,29.296875,-112.3046875,-165.52734375,14.16015625,301.7578125
1656239075181.75,25.390625,-96.6796875,84.47265625,0.48828125,7.32421875
1656239075185.6562,41.015625,-132.32421875,-178.22265625,-3.90625,15.13671875
1656239075189.5625,59.08203125,-114.74609375,-306.640625,15.13671875,179.6875
1656239075193.4688,53.7109375,-93.75,-7.32421875,4.8828125,-9.765625
1656239075197.375,58.59375,-106.4453125,0.9765625,4.39453125,-117.1875
1656239075201.2812,74.21875,-116.69921875,-203.125,9.27734375,-7.32421875
1656239075205.1875,65.91796875,-115.234375,-172.36328125,0.48828125,33.69140625
1656239075209.0938,63.96484375,-98.14453125,-33.203125,2.44140625,-41.9921875
1656239075213,64.453125,-104.98046875,-41.50390625,-1.46484375,-80.078125
1656239075216.9062,62.98828125,-146.484375,-294.921875,7.32421875,99.609375
1656239075220.8125,64.94140625,-124.51171875,-290.52734375,10.25390625,125
1656239075224.7188,57.6171875,-86.9140625,-35.15625,3.90625,-30.76171875
1656239075228.625,51.7578125,-111.81640625,-76.171875,0.9765625,-47.36328125
1656239075232.5312,55.6640625,-139.6484375,-326.66015625,-0.9765625,112.79296875
1656239075236.4375,55.6640625,-90.8203125,-206.0546875,6.8359375,229.00390625
1656239075240.3438,45.41015625,-73.2421875,105.46875,-8.30078125,-12.6953125
1656239075244.25,58.59375,-106.93359375,-46.38671875,-18.5546875,-55.6640625
1656239075248.1562,74.21875,-96.19140625,-165.0390625,11.23046875,35.15625
1656239075252.0625,76.66015625,-74.70703125,-19.53125,21.484375,-27.83203125
1656239075255.9688,80.078125,-86.9140625,28.80859375,11.71875,-67.3828125
1656239075259.875,86.9140625,-110.83984375,-181.640625,8.30078125,-51.7578125
1656239075263.7812,83.0078125,-110.3515625,-337.890625,11.71875,123.53515625
1656239075267.6875,78.125,-91.30859375,-176.26953125,1.46484375,91.30859375
1656239075271.5938,62.5,-73.2421875,62.01171875,-27.34375,-87.890625
1656239075275.5,62.01171875,-98.14453125,-51.7578125,-21.484375,27.34375
1656239075279.4062,73.2421875,-107.421875,-401.85546875,-2.44140625,264.6484375
1656239075283.3125,68.359375,-62.98828125,-118.1640625,-5.859375,104.00390625
1656239075287.2188,62.98828125,-66.40625,-13.671875,6.34765625,21.484375
1656239075291.125,64.453125,-65.4296875,-124.51171875,5.859375,69.82421875
1656239075295.0312,60.546875,-42.48046875,-23.4375,-1.953125,81.54296875
1656239075298.9375,46.875,11.71875,50.78125,-16.11328125,-20.5078125
1656239075302.8438,52.24609375,100.5859375,-60.546875,-22.4609375,-109.86328125
1656239075306.75,52.734375,108.3984375,-187.5,-5.859375,7.32421875
1656239075310.6562,62.98828125,111.81640625,-129.8828125,-9.765625,123.53515625
1656239075314.5625,79.58984375,123.53515625,-41.015625,-5.37109375,98.14453125
1656239075318.4688,58.10546875,97.65625,-83.49609375,-1.46484375,68.359375
1656239075322.375,54.6875,57.6171875,-213.8671875,-7.32421875,93.75
1656239075326.2812,59.5703125,85.9375,-86.42578125,-4.8828125,-29.296875
1656239075330.1875,46.38671875,108.88671875,104.98046875,3.90625,-125
1656239075334.0938,47.36328125,65.4296875,5.859375,-6.34765625,-103.515625
1656239075338,38.0859375,-1.953125,-359.375,-18.5546875,128.41796875
1656239075341.9062,44.43359375,54.19921875,-238.76953125,-15.13671875,210.44921875
1656239075345.8125,56.640625,67.87109375,88.37890625,-19.53125,16.11328125
1656239075349.7188,52.24609375,16.6015625,9.765625,-17.08984375,-20.5078125
1656239075353.625,36.62109375,8.30078125,-156.25,-19.04296875,123.046875
1656239075357.5312,15.625,1.46484375,-102.5390625,-17.08984375,118.1640625
1656239075361.4375,8.7890625,-2.9296875,-79.58984375,-7.8125,11.71875
1656239075365.3438,15.13671875,-6.34765625,-136.71875,-13.671875,18.06640625
1656239075369.25,17.578125,-51.7578125,-327.1484375,-13.18359375,252.9296875
1656239075373.1562,7.8125,11.71875,27.83203125,-16.6015625,117.67578125
1656239075377.0625,3.41796875,0,194.82421875,-25.87890625,-101.5625
1656239075380.9688,12.6953125,-62.5,-129.8828125,-23.4375,-80.078125
1656239075384.875,10.7421875,-27.34375,-83.49609375,-18.5546875,-55.6640625
1656239075388.7812,4.8828125,-14.16015625,38.57421875,-14.16015625,-91.30859375
1656239075392.6875,20.01953125,-40.52734375,20.99609375,-0.9765625,-100.09765625
1656239075396.5938,28.80859375,-66.89453125,-87.890625,7.32421875,-5.37109375
1656239075400.5,9.27734375,-57.12890625,-102.5390625,-8.30078125,30.2734375
1656239075404.4062,8.7890625,-58.59375,-83.0078125,-11.71875,106.4453125
1656239075408.3125,19.04296875,-59.08203125,-30.2734375,1.953125,68.84765625
1656239075412.2188,20.99609375,-103.515625,-168.45703125,20.99609375,174.8046875
1656239075416.125,43.45703125,-73.73046875,-298.33984375,45.8984375,414.55078125
1656239075420.0312,0.48828125,-10.7421875,173.828125,-3.90625,150.87890625
1656239075423.9375,191.89453125,125.9765625,244.140625,183.59375,-55.6640625
1656239075427.8438,583.984375,494.62890625,272.4609375,587.890625,60.05859375
1656239075431.75,735.3515625,674.8046875,626.46484375,720.21484375,29.78515625
1656239075435.6562,763.18359375,665.0390625,725.5859375,721.19140625,-40.0390625
1656239075439.5625,757.8125,632.8125,605.95703125,714.84375,42.48046875
1656239075443.4688,726.07421875,625,583.984375,690.91796875,116.2109375
1656239075447.375,707.03125,596.6796875,699.70703125,659.66796875,63.4765625
1656239075451.2812,685.546875,533.69140625,631.34765625,619.140625,22.4609375
1656239075455.1875,666.015625,491.2109375,554.19921875,587.890625,131.8359375
1656239075459.0938,646.484375,430.6640625,324.70703125,573.2421875,389.16015625
1656239075463,591.30859375,469.23828125,556.640625,562.5,274.4140625
1656239075466.9062,552.24609375,469.23828125,865.72265625,509.27734375,-20.99609375
1656239075470.8125,553.7109375,398.4375,641.6015625,460.44921875,-7.32421875
1656239075474.7188,536.1328125,401.85546875,518.5546875,451.171875,79.58984375
1656239075478.625,490.234375,379.8828125,618.65234375,432.12890625,-29.296875
1656239075482.5312,455.56640625,315.4296875,553.22265625,399.4140625,-101.5625
1656239075486.4375,431.15234375,273.92578125,439.453125,374.51171875,-35.15625
1656239075490.3438,417.48046875,277.83203125,519.53125,350.5859375,-22.4609375
1656239075494.25,389.6484375,238.28125,532.2265625,336.9140625,-62.01171875
1656239075498.1562,355.95703125,173.33984375,374.0234375,323.2421875,-58.59375
1656239075502.0625,335.44921875,124.51171875,184.08203125,295.8984375,189.453125
1656239075505.9688,318.359375,162.59765625,235.83984375,270.99609375,333.984375
1656239075509.875,291.9921875,196.2890625,641.6015625,262.20703125,-1.46484375
1656239075513.7812,282.2265625,122.0703125,584.47265625,262.6953125,-105.46875
1656239075517.6875,273.4375,82.03125,314.94140625,214.84375,22.4609375
1656239075521.5938,250,85.9375,295.41015625,195.3125,73.2421875
1656239075525.5,241.69921875,124.51171875,457.03125,204.58984375,-33.203125
1656239075529.4062,232.421875,105.95703125,464.84375,196.2890625,-56.640625
1656239075533.3125,220.21484375,59.5703125,214.35546875,191.89453125,147.4609375
1656239075537.2188,211.42578125,94.23828125,348.6328125,182.12890625,71.2890625
1656239075541.125,200.68359375,88.8671875,486.81640625,171.38671875,-52.24609375
1656239075545.0312,194.3359375,21.484375,216.30859375,160.64453125,69.82421875
1656239075548.9375,192.3828125,-1.953125,4.39453125,142.08984375,295.41015625
1656239075552.8438,178.7109375,76.66015625,419.921875,135.7421875,98.6328125
1656239075556.75,153.3203125,56.640625,523.4375,131.34765625,-104.98046875
1656239075560.6562,133.7890625,11.23046875,262.20703125,113.76953125,-23.4375
1656239075564.5625,135.25390625,31.25,257.8125,120.60546875,-4.39453125
1656239075568.4688,146.484375,26.3671875,365.234375,110.3515625,-68.84765625
1656239075572.375,137.20703125,-0.48828125,351.5625,90.33203125,-96.19140625
1656239075576.2812,133.7890625,-40.52734375,192.87109375,85.44921875,6.8359375
1656239075580.1875,111.81640625,-33.69140625,136.23046875,87.890625,141.6015625
1656239075584.0938,83.0078125,-9.27734375,262.20703125,80.56640625,25.87890625
1656239075588,86.9140625,-27.83203125,309.5703125,74.70703125,-61.03515625
1656239075591.9062,93.75,-72.265625,96.6796875,73.2421875,92.7734375
1656239075595.8125,88.8671875,-36.1328125,106.93359375,76.66015625,193.84765625
1656239075599.7188,69.3359375,0,353.02734375,65.4296875,45.8984375
1656239075603.625,70.80078125,-35.15625,332.03125,62.01171875,-91.30859375
1656239075607.5312,78.125,-100.5859375,-15.625,69.3359375,115.234375
1656239075611.4375,66.40625,-41.9921875,-11.23046875,55.6640625,318.359375
1656239075615.3438,65.4296875,16.11328125,432.6171875,53.22265625,24.90234375
1656239075619.25,60.05859375,-51.7578125,310.546875,50.78125,-97.65625
1656239075623.1562,39.55078125,-52.24609375,99.12109375,46.875,9.765625
1656239075627.0625,29.78515625,-23.4375,230.95703125,47.8515625,-22.4609375
1656239075630.9688,43.45703125,-35.15625,282.2265625,40.52734375,-79.1015625
1656239075634.875,49.31640625,-74.21875,109.375,27.34375,3.90625
1656239075638.7812,26.85546875,-86.42578125,-56.15234375,22.94921875,156.73828125
1656239075642.6875,13.671875,-71.77734375,72.265625,34.66796875,140.13671875
1656239075646.5938,14.16015625,-69.3359375,190.4296875,28.3203125,85.9375
1656239075650.5,7.8125,-84.9609375,135.25390625,10.7421875,52.24609375
1656239075654.4062,12.6953125,-124.51171875,-117.1875,16.11328125,269.04296875
1656239075658.3125,8.7890625,-49.31640625,213.37890625,17.578125,142.578125
1656239075662.2188,-6.34765625,-50.78125,370.60546875,24.4140625,-160.15625
1656239075666.125,3.41796875,-101.07421875,131.8359375,20.5078125,-112.79296875
1656239075670.0312,0.48828125,-73.2421875,205.56640625,6.34765625,-54.6875
1656239075673.9375,-24.90234375,-69.3359375,254.8828125,11.71875,-59.5703125
1656239075677.8438,-25.87890625,-91.796875,160.15625,-4.39453125,-83.984375
1656239075681.75,-27.34375,-114.74609375,13.671875,-24.4140625,-23.4375
1656239075685.6562,-25.390625,-100.5859375,5.859375,-16.11328125,66.40625
1656239075689.5625,-2.44140625,-77.63671875,104.4921875,-11.23046875,82.03125
1656239075693.4688,1.953125,-65.4296875,233.88671875,-9.27734375,-24.90234375
1656239075697.375,-18.5546875,-147.94921875,-50.78125,-11.23046875,160.15625
1656239075701.2812,-32.2265625,-140.13671875,-245.1171875,-0.48828125,387.6953125
1656239075705.1875,-39.0625,-35.15625,315.91796875,0.48828125,84.47265625
1656239075709.0938,-31.73828125,-84.9609375,316.89453125,-8.30078125,-104.4921875
1656239075713,-25.390625,-107.421875,68.359375,11.71875,-34.1796875
1656239075716.9062,-26.3671875,-76.66015625,206.0546875,12.6953125,-67.87109375
1656239075720.8125,-50.78125,-93.26171875,205.56640625,-17.08984375,-103.02734375
1656239075724.7188,-56.640625,-120.60546875,89.84375,-11.23046875,-70.3125
1656239075728.625,-46.875,-114.74609375,37.59765625,-0.48828125,-13.671875
1656239075732.5312,-32.71484375,-109.86328125,72.265625,-5.859375,47.36328125
1656239075736.4375,-20.99609375,-103.515625,125.48828125,-9.765625,26.3671875
1656239075740.3438,-28.3203125,-111.328125,84.47265625,-6.8359375,61.03515625
1656239075744.25,-24.90234375,-139.6484375,-147.4609375,-3.90625,278.3203125
1656239075748.1562,-24.90234375,-67.87109375,223.14453125,-11.71875,117.67578125
1656239075752.0625,-36.62109375,-74.21875,401.85546875,-1.953125,-105.46875
1656239075755.9688,-32.71484375,-118.65234375,74.70703125,-4.8828125,77.63671875
1656239075759.875,-48.828125,-85.44921875,50.29296875,-8.7890625,75.68359375
1656239075763.7812,-34.66796875,-66.40625,237.3046875,-10.25390625,-81.54296875
1656239075767.6875,-32.2265625,-97.65625,211.42578125,-27.83203125,-87.890625
1656239075771.5938,-53.7109375,-128.41796875,83.49609375,-32.71484375,-36.1328125
1656239075775.5,-49.31640625,-100.09765625,149.90234375,-25.87890625,-44.921875
1656239075779.4062,-62.01171875,-102.5390625,121.58203125,-22.94921875,12.6953125
1656239075783.3125,-60.546875,-109.86328125,99.609375,-23.92578125,99.12109375
1656239075787.2188,-44.43359375,-141.6015625,18.5546875,-12.6953125,207.03125
1656239075791.125,-27.83203125,-90.33203125,18.06640625,-2.9296875,243.1640625
1656239075795.0312,-22.4609375,-41.50390625,411.62109375,-5.859375,-12.6953125
1656239075798.9375,-36.62109375,-99.609375,300.29296875,-6.34765625,-68.359375
1656239075802.8438,-26.85546875,-115.72265625,60.05859375,-18.06640625,-0.9765625
1656239075806.75,-20.5078125,-99.609375,212.890625,-14.16015625,-52.734375
1656239075810.6562,-35.64453125,-92.28515625,255.37109375,7.32421875,-67.87109375
1656239075814.5625,-28.3203125,-122.0703125,63.4765625,2.9296875,40.0390625
1656239075818.4688,-25.87890625,-117.67578125,-19.04296875,-6.8359375,147.94921875
1656239075822.375,-23.4375,-69.3359375,206.0546875,-11.23046875,38.57421875
1656239075826.2812,-1.46484375,-90.8203125,203.125,-17.08984375,66.40625
1656239075830.1875,-15.13671875,-117.67578125,52.734375,-9.765625,144.04296875
1656239075834.0938,-19.04296875,-133.30078125,-87.40234375,-3.90625,256.8359375
1656239075838,-17.08984375,-52.24609375,269.04296875,-6.34765625,166.015625
1656239075841.9062,-20.01953125,-59.08203125,412.59765625,-12.6953125,-52.734375
1656239075845.8125,-4.8828125,-108.88671875,125,-18.5546875,-35.64453125
1656239075849.7188,-4.8828125,-77.1484375,147.94921875,-16.6015625,-17.08984375
1656239075853.625,-15.625,-66.89453125,268.06640625,-18.5546875,-63.96484375
1656239075857.5312,-28.80859375,-87.890625,223.14453125,-19.53125,-83.0078125
1656239075861.4375,-15.13671875,-108.88671875,99.609375,-6.34765625,-14.6484375
1656239075865.3438,3.41796875,-88.8671875,177.24609375,11.23046875,1.953125
1656239075869.25,2.9296875,-83.984375,239.2578125,-1.953125,-52.734375
1656239075873.1562,-5.859375,-93.26171875,195.3125,-11.71875,-75.68359375
1656239075877.0625,-19.53125,-142.08984375,32.71484375,-11.71875,155.2734375
1656239075880.9688,-21.484375,-135.7421875,-104.98046875,4.8828125,396.484375
1656239075884.875,-7.8125,-43.45703125,364.74609375,3.41796875,40.52734375
1656239075888.7812,26.85546875,-80.56640625,418.9453125,-7.32421875,-114.74609375
1656239075892.6875,22.4609375,-129.8828125,154.78515625,-6.8359375,31.73828125
1656239075896.5938,-8.7890625,-94.7265625,251.953125,-12.20703125,-29.296875
1656239075900.5,-14.6484375,-91.796875,292.96875,-10.25390625,-99.12109375
1656239075904.4062,-25.390625,-121.09375,169.921875,3.90625,-32.2265625
1656239075908.3125,-25.87890625,-108.88671875,100.09765625,-10.7421875,9.765625
1656239075912.2188,4.39453125,-70.3125,255.37109375,-13.18359375,-61.5234375
1656239075916.125,3.41796875,-67.87109375,304.19921875,-7.32421875,-81.0546875
1656239075920.0312,-18.5546875,-112.79296875,67.3828125,-4.8828125,41.9921875
1656239075923.9375,-8.30078125,-130.859375,-132.32421875,2.44140625,259.765625
1656239075927.8438,-8.30078125,-48.828125,300.78125,-5.859375,135.7421875
1656239075931.75,-10.7421875,-49.8046875,459.9609375,16.6015625,-11.71875
1656239075935.6562,5.859375,-83.0078125,248.046875,-7.32421875,63.4765625
1656239075939.5625,16.11328125,-61.03515625,145.01953125,-17.08984375,171.38671875
1656239075943.4688,10.25390625,-25.390625,354.00390625,-14.16015625,47.36328125
1656239075947.375,-10.7421875,-52.734375,404.296875,-31.25,-80.078125
1656239075951.2812,-12.6953125,-85.44921875,252.9296875,-32.71484375,-20.01953125
1656239075955.1875,-3.41796875,-73.2421875,265.13671875,-21.484375,15.625
1656239075959.0938,-15.13671875,-72.265625,239.2578125,7.8125,-98.14453125
1656239075963,-35.64453125,-90.8203125,168.45703125,13.671875,-133.7890625
1656239075966.9062,-30.76171875,-121.09375,35.64453125,-3.90625,154.296875
1656239075970.8125,-29.296875,-91.30859375,118.1640625,-6.8359375,237.3046875
1656239075974.7188,-39.55078125,-48.33984375,342.7734375,-16.11328125,-12.20703125
1656239075978.625,-43.9453125,-63.96484375,238.28125,-4.8828125,-85.44921875
1656239075982.5312,-69.82421875,-122.55859375,-65.4296875,0.9765625,96.6796875
1656239075986.4375,-81.54296875,-83.0078125,45.41015625,-9.27734375,116.69921875
1656239075990.3438,-47.8515625,-61.03515625,258.30078125,-11.23046875,11.71875
1656239075994.25,-50.78125,-97.65625,214.84375,-3.41796875,18.5546875
1656239075998.1562,-57.12890625,-122.55859375,-2.9296875,-5.37109375,112.3046875
1656239076002.0625,-44.921875,-77.63671875,87.40234375,-20.01953125,22.94921875
1656239076005.9688,-62.5,-68.84765625,186.03515625,-21.97265625,-103.02734375
1656239076009.875,-97.16796875,-91.30859375,64.453125,-49.8046875,-37.59765625
1656239076013.7812,-112.79296875,-86.9140625,-44.43359375,-53.22265625,167.96875
1656239076017.6875,-107.91015625,-70.3125,19.04296875,-25.87890625,155.2734375
1656239076021.5938,-78.61328125,-56.15234375,156.73828125,-25.87890625,-51.26953125
1656239076025.5,-71.2890625,-92.7734375,14.6484375,-17.578125,-31.25
1656239076029.4062,-81.0546875,-105.46875,-196.77734375,-27.83203125,220.703125
1656239076033.3125,-91.796875,-34.1796875,183.59375,-27.83203125,80.078125
1656239076037.2188,-100.09765625,-52.734375,210.44921875,-10.25390625,-89.35546875
1656239076041.125,-88.37890625,-95.21484375,-81.54296875,-25.390625,-63.96484375
1656239076045.0312,-74.21875,-83.984375,-77.63671875,-30.76171875,-34.1796875
1656239076048.9375,-50.78125,-63.96484375,-35.15625,-21.97265625,32.2265625
1656239076052.8438,-54.6875,-54.6875,86.9140625,-30.2734375,-20.99609375
1656239076056.75,-97.65625,-95.21484375,-34.66796875,-43.45703125,46.875
1656239076060.6562,-80.078125,-90.8203125,-161.1328125,-46.875,229.4921875
1656239076064.5625,-44.43359375,-64.94140625,-44.43359375,-40.52734375,96.6796875
1656239076068.4688,-64.94140625,-61.03515625,99.609375,-54.6875,-96.6796875
1656239076072.375,-74.70703125,-115.234375,-128.90625,-38.0859375,75.1953125
1656239076076.2812,-61.5234375,-57.6171875,-168.9453125,-5.859375,253.41796875
1656239076080.1875,-76.171875,-11.23046875,134.765625,-12.6953125,-39.0625
1656239076084.0938,-98.14453125,-64.453125,0.9765625,-7.32421875,-94.23828125
1656239076088,-80.078125,-57.6171875,-108.3984375,-33.203125,44.921875
1656239076091.9062,-53.7109375,-36.1328125,21.97265625,-54.6875,-33.203125
1656239076095.8125,-62.5,-43.45703125,39.0625,-27.83203125,-89.35546875
1656239076099.7188,-74.70703125,-56.15234375,-112.3046875,-22.94921875,-65.91796875
1656239076103.625,-85.44921875,-53.22265625,-183.59375,-29.296875,19.53125
1656239076107.5312,-102.5390625,-60.546875,-112.3046875,-10.25390625,139.6484375
1656239076111.4375,-82.03125,-57.6171875,-54.19921875,-8.7890625,83.984375
1656239076115.3438,-57.6171875,-70.80078125,-103.02734375,-18.06640625,48.828125
1656239076119.25,-87.40234375,-104.00390625,-364.2578125,-28.3203125,331.0546875
1656239076123.1562,-108.3984375,-14.6484375,-107.421875,-30.2734375,262.6953125
1656239076127.0625,-72.265625,-6.34765625,206.0546875,-13.671875,-78.125
1656239076130.9688,-56.640625,-68.359375,10.7421875,-17.08984375,-83.49609375
1656239076134.875,-91.30859375,-40.52734375,-35.64453125,-33.69140625,-64.94140625
1656239076138.7812,-90.8203125,-40.0390625,0,-24.90234375,-116.2109375
1656239076142.6875,-66.89453125,-70.3125,-99.609375,-17.08984375,-117.1875
1656239076146.5938,-69.82421875,-81.0546875,-162.59765625,-29.296875,-92.7734375
1656239076150.5,-75.1953125,-56.640625,-36.62109375,-34.66796875,-49.8046875
1656239076154.4062,-102.5390625,-66.89453125,-51.7578125,-28.80859375,47.8515625
1656239076158.3125,-59.5703125,-73.2421875,-97.65625,-30.2734375,43.9453125
1656239076162.2188,-60.546875,-116.69921875,-263.671875,-26.3671875,196.77734375
1656239076166.125,-85.9375,-243.1640625,-354.98046875,-16.6015625,489.2578125
1656239076170.0312,-56.15234375,-270.99609375,188.4765625,-23.92578125,145.5078125
1656239076173.9375,-60.546875,-301.26953125,202.1484375,-20.5078125,-112.79296875
1656239076177.8438,-87.40234375,-333.49609375,-143.5546875,-27.34375,-28.80859375
1656239076181.75,-74.21875,-293.45703125,-46.875,-42.48046875,-58.10546875
1656239076185.6562,-86.42578125,-268.5546875,72.265625,-56.640625,-89.84375
1656239076189.5625,-69.82421875,-278.80859375,-25.87890625,-35.64453125,-64.94140625
1656239076193.4688,-56.15234375,-264.16015625,-75.1953125,-10.25390625,-3.90625
1656239076197.375,-91.30859375,-253.90625,5.37109375,-14.16015625,-35.15625
1656239076201.2812,-82.03125,-260.7421875,-55.6640625,-7.32421875,-42.48046875
1656239076205.1875,-71.77734375,-244.140625,-130.37109375,0.48828125,105.46875
1656239076209.0938,-75.1953125,-248.046875,-245.1171875,3.41796875,321.2890625
1656239076213,-84.47265625,-180.6640625,143.06640625,-17.08984375,160.64453125
1656239076216.9062,-93.26171875,-186.03515625,267.08984375,-25.87890625,-109.375
1656239076220.8125,-74.21875,-224.609375,-45.8984375,-11.71875,-44.921875
1656239076224.7188,-67.87109375,-171.38671875,-13.18359375,-14.6484375,144.53125
1656239076228.625,-85.9375,-144.04296875,147.94921875,-19.53125,22.94921875
1656239076232.5312,-63.4765625,-160.64453125,103.02734375,-19.04296875,-118.1640625
1656239076236.4375,-53.22265625,-182.6171875,-69.3359375,-13.671875,-11.71875
1656239076240.3438,-57.12890625,-156.73828125,-39.0625,-27.83203125,49.8046875
1656239076244.25,-59.5703125,-139.16015625,91.30859375,-45.41015625,-68.359375
1656239076248.1562,-56.640625,-154.296875,18.5546875,-29.296875,-9.765625
1656239076252.0625,-48.33984375,-163.0859375,-107.421875,-11.23046875,204.1015625
1656239076255.9688,-74.70703125,-118.65234375,15.13671875,-1.953125,155.2734375
1656239076259.875,-68.84765625,-97.65625,202.1484375,-8.30078125,-20.99609375
1656239076263.7812,-41.50390625,-126.953125,139.6484375,-32.2265625,-83.984375
1656239076267.6875,-64.453125,-170.41015625,-154.78515625,-47.8515625,123.53515625
1656239076271.5938,-85.9375,-114.74609375,-50.29296875,-42.48046875,219.7265625
1656239076275.5,-62.01171875,-74.70703125,288.0859375,-37.59765625,-76.171875
1656239076279.4062,-63.96484375,-127.44140625,73.2421875,-32.2265625,-67.3828125
1656239076283.3125,-77.63671875,-124.0234375,-99.609375,-28.80859375,153.3203125
1656239076287.2188,-85.9375,-89.84375,69.82421875,-31.25,4.8828125
1656239076291.125,-80.078125,-91.30859375,135.25390625,-34.1796875,-133.7890625
1656239076295.0312,-68.359375,-123.046875,-50.29296875,-25.390625,75.1953125
1656239076298.9375,-57.12890625,-145.01953125,-355.46875,-26.3671875,442.3828125
1656239076302.8438,-39.0625,-67.3828125,-41.9921875,-48.33984375,232.421875
1656239076306.75,-62.98828125,-56.15234375,240.234375,-36.1328125,-133.30078125
1656239076310.6562,-83.49609375,-91.796875,54.19921875,-14.6484375,-54.19921875
1656239076314.5625,-51.26953125,-76.66015625,12.6953125,-32.71484375,-12.6953125
1656239076318.4688,-34.66796875,-74.21875,4.8828125,-41.015625,-78.61328125
1656239076322.375,-47.8515625,-83.0078125,-39.0625,-35.15625,-74.21875
1656239076326.2812,9.765625,-86.9140625,-107.421875,-25.87890625,-40.0390625
1656239076330.1875,7.8125,-61.5234375,-49.8046875,-31.25,-65.91796875
1656239076334.0938,-60.05859375,-49.31640625,47.36328125,-26.85546875,-96.19140625
1656239076338,-36.62109375,-71.77734375,-60.05859375,-23.4375,-93.26171875
1656239076341.9062,-37.59765625,-83.984375,-216.30859375,-40.0390625,112.3046875
1656239076345.8125,-50.29296875,-57.6171875,-110.3515625,-32.2265625,215.8203125
1656239076349.7188,-47.8515625,-31.25,33.69140625,-16.6015625,70.3125
1656239076353.625,-53.22265625,-6.34765625,108.3984375,-16.6015625,-46.875
1656239076357.5312,-64.94140625,-39.55078125,-173.828125,-12.6953125,104.98046875
1656239076361.4375,-43.45703125,25.390625,-201.171875,-2.44140625,223.6328125
1656239076365.3438,-52.734375,94.23828125,187.98828125,-7.32421875,3.41796875
1656239076369.25,-68.359375,58.10546875,121.58203125,-17.578125,-77.1484375
1656239076373.1562,-15.13671875,77.1484375,-56.15234375,14.16015625,-40.52734375
1656239076377.0625,-3.41796875,144.53125,13.18359375,3.41796875,-68.359375
1656239076380.9688,-43.45703125,180.6640625,54.6875,-12.6953125,-111.81640625
1656239076384.875,-24.4140625,164.0625,-59.5703125,-12.6953125,-55.6640625
1656239076388.7812,-32.71484375,164.0625,-163.57421875,-19.53125,105.46875
1656239076392.6875,-28.3203125,185.05859375,15.13671875,-18.06640625,125.9765625
1656239076396.5938,4.39453125,174.31640625,125.9765625,-16.11328125,10.25390625
1656239076400.5,-26.3671875,107.91015625,-105.46875,-0.48828125,30.2734375
1656239076404.4062,-30.76171875,69.3359375,-362.3046875,-14.16015625,265.625
1656239076408.3125,-21.484375,146.484375,95.703125,-13.671875,133.30078125
1656239076412.2188,-43.9453125,118.1640625,288.57421875,-4.8828125,-134.765625
1656239076416.125,-32.2265625,60.05859375,11.71875,-0.48828125,-62.01171875
1656239076420.0312,-29.78515625,89.35546875,17.08984375,3.41796875,-2.44140625
1656239076423.9375,7.32421875,88.8671875,52.24609375,2.9296875,-82.51953125
1656239076427.8438,11.23046875,75.68359375,45.8984375,-13.671875,-78.125
1656239076431.75,-23.92578125,42.96875,-39.0625,-19.53125,4.39453125
1656239076435.6562,-21.97265625,26.3671875,-81.54296875,0.9765625,91.30859375
1656239076439.5625,-1.953125,45.41015625,-36.62109375,2.9296875,52.734375
1656239076443.4688,-6.8359375,53.7109375,49.8046875,-21.484375,-84.47265625
1656239076447.375,-25.390625,-10.25390625,-139.16015625,3.90625,74.21875
1656239076451.2812,-25.87890625,37.59765625,-108.88671875,10.7421875,224.12109375
1656239076455.1875,-13.18359375,71.77734375,224.12109375,-23.4375,-2.44140625
1656239076459.0938,-19.04296875,-1.953125,6.34765625,-10.25390625,48.33984375
1656239076463,-10.25390625,-18.06640625,-157.71484375,-3.90625,201.66015625
1656239076466.9062,-18.5546875,26.3671875,84.47265625,-13.18359375,27.34375
1656239076470.8125,-46.38671875,22.94921875,189.453125,-24.90234375,-97.65625
1656239076474.7188,-45.8984375,-18.5546875,30.2734375,-22.4609375,-27.34375
1656239076478.625,-30.76171875,-16.6015625,-64.94140625,-4.8828125,45.8984375
1656239076482.5312,-29.296875,-16.6015625,-72.265625,6.34765625,140.13671875
1656239076486.4375,-15.625,-1.953125,3.90625,5.859375,114.2578125
1656239076490.3438,-30.76171875,-18.06640625,8.7890625,9.765625,62.5
1656239076494.25,-34.1796875,-62.98828125,-254.39453125,0,247.55859375
1656239076498.1562,-1.46484375,12.6953125,80.56640625,-7.32421875,144.53125
1656239076502.0625,-44.921875,0.9765625,250.48828125,-12.20703125,-76.66015625
1656239076505.9688,-54.6875,-49.31640625,-8.7890625,-9.765625,-33.203125
1656239076509.875,-33.203125,-21.484375,35.64453125,-10.7421875,-50.78125
1656239076513.7812,-5.859375,-24.4140625,67.3828125,-3.90625,-104.00390625
1656239076517.6875,9.27734375,-39.0625,-46.875,-6.8359375,-50.29296875
1656239076521.5938,-35.15625,-41.50390625,-93.26171875,-14.16015625,57.12890625
1656239076525.5,-60.05859375,-31.73828125,22.4609375,3.90625,57.12890625
1656239076529.4062,-67.3828125,-31.73828125,52.734375,17.578125,-23.92578125
1656239076533.3125,-37.109375,-48.828125,50.78125,2.44140625,-1.46484375
1656239076537.2188,-9.27734375,-84.47265625,-101.07421875,-13.18359375,122.55859375
1656239076541.125,-34.1796875,-36.62109375,-122.0703125,-5.37109375,235.3515625
1656239076545.0312,-52.24609375,-7.32421875,251.46484375,-11.71875,-29.78515625
1656239076548.9375,-46.38671875,-55.6640625,183.59375,-31.73828125,-115.234375
1656239076552.8438,-31.73828125,-70.3125,-12.20703125,-30.2734375,15.625
1656239076556.75,-27.83203125,-46.875,81.54296875,-39.0625,-37.59765625
1656239076560.6562,-44.921875,-53.22265625,104.00390625,-41.015625,-80.56640625
1656239076564.5625,-38.0859375,-75.1953125,-27.83203125,-37.59765625,-65.91796875
1656239076568.4688,-47.8515625,-60.546875,-23.4375,-35.64453125,-18.5546875
1656239076572.375,-26.85546875,-43.45703125,111.81640625,-27.34375,-16.6015625
1656239076576.2812,-23.92578125,-64.94140625,55.6640625,-20.01953125,37.109375
1656239076580.1875,-48.33984375,-84.47265625,-72.265625,-15.13671875,108.88671875
1656239076584.0938,-60.05859375,-118.65234375,-309.5703125,-23.92578125,376.46484375
1656239076588,-65.91796875,-36.62109375,34.1796875,-31.73828125,311.03515625
1656239076591.9062,-60.05859375,-20.01953125,412.109375,-30.76171875,-83.49609375
1656239076595.8125,-58.10546875,-78.61328125,190.4296875,-17.578125,-80.078125
1656239076599.7188,-61.03515625,-63.4765625,77.1484375,-13.18359375,-34.66796875
1656239076603.625,-63.4765625,-57.12890625,140.625,-36.1328125,-87.40234375
1656239076607.5312,-62.01171875,-60.05859375,147.4609375,-49.31640625,-80.56640625
1656239076611.4375,-41.50390625,-77.63671875,55.6640625,-39.0625,3.90625
1656239076615.3438,-33.203125,-68.84765625,131.8359375,-22.94921875,-4.8828125
1656239076619.25,-39.0625,-74.70703125,120.1171875,-16.6015625,-73.2421875
1656239076623.1562,-47.36328125,-94.23828125,44.921875,-18.5546875,21.97265625
1656239076627.0625,-43.45703125,-130.859375,-62.5,-23.92578125,222.16796875
1656239076630.9688,-31.73828125,-96.19140625,-41.015625,-21.484375,348.6328125
1656239076634.875,-34.66796875,-49.31640625,289.0625,-16.6015625,110.3515625
1656239076638.7812,-51.26953125,-87.890625,260.7421875,-38.0859375,-91.30859375
1656239076642.6875,-51.7578125,-127.9296875,-4.8828125,-30.2734375,57.12890625
1656239076646.5938,-26.3671875,-83.0078125,154.296875,-2.44140625,61.03515625
1656239076650.5,-21.484375,-57.12890625,337.890625,-19.04296875,-99.12109375
1656239076654.4062,-41.015625,-90.8203125,242.1875,-27.83203125,-49.31640625
1656239076658.3125,-54.19921875,-100.5859375,94.23828125,-25.87890625,38.0859375
1656239076662.2188,-70.80078125,-87.40234375,142.08984375,-25.87890625,1.953125
1656239076666.125,-64.94140625,-90.8203125,203.125,-34.66796875,-37.109375
1656239076670.0312,-51.7578125,-122.55859375,32.2265625,-39.55078125,36.1328125
1656239076673.9375,-44.921875,-139.6484375,-137.20703125,-36.1328125,278.3203125
1656239076677.8438,-43.9453125,-67.87109375,180.6640625,-26.85546875,138.671875
1656239076681.75,-39.0625,-78.61328125,265.13671875,-10.25390625,-90.8203125
1656239076685.6562,-39.55078125,-113.76953125,55.17578125,-24.90234375,-29.296875
1656239076689.5625,-49.31640625,-90.8203125,61.03515625,-41.015625,-7.32421875
1656239076693.4688,-34.66796875,-81.0546875,148.4375,-36.62109375,-10.7421875
1656239076697.375,-36.1328125,-95.21484375,166.015625,-33.69140625,-46.875
1656239076701.2812,-56.640625,-133.30078125,-85.9375,-45.8984375,-51.7578125
1656239076705.1875,-55.17578125,-97.16796875,-89.84375,-60.05859375,46.875
1656239076709.0938,-55.17578125,-72.265625,156.73828125,-61.5234375,-12.20703125
1656239076713,-51.26953125,-97.16796875,142.08984375,-49.8046875,-80.56640625
1656239076716.9062,-59.08203125,-148.92578125,-111.81640625,-50.29296875,138.671875
1656239076720.8125,-63.96484375,-142.08984375,-187.98828125,-56.15234375,199.21875
1656239076724.7188,-49.31640625,-97.65625,42.48046875,-52.24609375,-17.578125
1656239076728.625,-43.9453125,-118.65234375,102.5390625,-57.6171875,-39.55078125
1656239076732.5312,-35.15625,-172.8515625,-111.81640625,-56.640625,138.671875
1656239076736.4375,-36.1328125,-121.58203125,-38.57421875,-32.71484375,117.67578125
1656239076740.3438,-37.59765625,-101.07421875,68.84765625,-31.73828125,-47.8515625
1656239076744.25,-40.0390625,-137.20703125,-112.3046875,-21.97265625,-59.5703125
1656239076748.1562,-37.59765625,-122.55859375,-125.9765625,-4.8828125,50.29296875
1656239076752.0625,-12.6953125,-107.421875,-10.25390625,-19.53125,106.4453125
1656239076755.9688,-16.6015625,-101.07421875,57.6171875,-28.3203125,-63.96484375
1656239076759.875,-39.55078125,-148.92578125,-151.3671875,-27.83203125,-55.17578125
1656239076763.7812,-33.203125,-189.94140625,-488.28125,-33.69140625,297.8515625
1656239076767.6875,-13.18359375,-112.3046875,-151.85546875,-42.48046875,256.34765625
1656239076771.5938,-20.01953125,-77.1484375,228.02734375,-36.62109375,-62.01171875
1656239076775.5,-17.08984375,-141.11328125,-14.16015625,-15.13671875,-47.36328125
1656239076779.4062,-13.18359375,-163.57421875,-403.80859375,0,214.84375
1656239076783.3125,-23.92578125,-94.7265625,-135.7421875,-10.25390625,65.91796875
1656239076787.2188,-6.8359375,-89.35546875,38.0859375,-10.25390625,-59.08203125
1656239076791.125,12.6953125,-123.53515625,-22.4609375,13.18359375,13.18359375
1656239076795.0312,-4.39453125,-127.9296875,-50.29296875,8.30078125,-21.97265625
1656239076798.9375,9.765625,-136.23046875,-161.1328125,3.90625,-83.984375
1656239076802.8438,5.37109375,-153.80859375,-229.4921875,-38.0859375,-86.42578125
1656239076806.75,-7.32421875,-174.31640625,-266.11328125,-61.03515625,11.23046875
1656239076810.6562,27.34375,-185.05859375,-182.12890625,-22.94921875,108.3984375
1656239076814.5625,10.25390625,-198.73046875,-78.61328125,-29.296875,99.12109375
1656239076818.4688,5.37109375,-207.03125,-94.23828125,-24.90234375,81.0546875
1656239076822.375,7.8125,-254.39453125,-345.21484375,-7.8125,182.12890625
1656239076826.2812,-4.8828125,-227.5390625,-419.43359375,-14.6484375,398.4375
1656239076830.1875,25.390625,-122.55859375,205.078125,-23.92578125,145.01953125
1656239076834.0938,20.5078125,-160.64453125,191.89453125,-24.4140625,-86.42578125
1656239076838,5.37109375,-182.12890625,-201.66015625,-11.71875,-6.8359375
1656239076841.9062,28.80859375,-165.52734375,-162.109375,-6.34765625,-27.83203125
1656239076845.8125,49.31640625,-187.98828125,-74.21875,-12.6953125,-98.14453125
1656239076849.7188,33.203125,-207.03125,-33.203125,-18.06640625,-27.83203125
1656239076853.625,2.9296875,-208.984375,-116.2109375,-16.6015625,116.69921875
1656239076857.5312,4.8828125,-210.44921875,-147.4609375,-10.25390625,74.70703125
1656239076861.4375,13.671875,-212.890625,-145.99609375,-26.85546875,-2.44140625
1656239076865.3438,22.4609375,-202.1484375,-97.65625,-37.109375,11.71875
1656239076869.25,32.2265625,-230.95703125,-258.30078125,-14.16015625,334.9609375
1656239076873.1562,14.16015625,-163.0859375,79.58984375,-17.08984375,270.01953125
1656239076877.0625,-8.30078125,-191.40625,317.3828125,-42.96875,-64.94140625
1656239076880.9688,-33.69140625,-267.578125,-43.9453125,-55.17578125,-90.8203125
1656239076884.875,-35.64453125,-226.5625,-52.24609375,-52.24609375,-78.125
1656239076888.7812,-16.6015625,-199.21875,179.19921875,-33.69140625,-112.3046875
1656239076892.6875,12.6953125,-204.58984375,225.5859375,3.90625,-79.1015625
1656239076896.5938,11.23046875,-215.8203125,70.80078125,6.34765625,3.90625
