time,TP9,AF7,AF8,TP10,AUX
1656238965322.375,-15.625,26.85546875,-245.1171875,-74.21875,-62.98828125
1656238965326.2812,-20.99609375,234.375,-80.56640625,-83.49609375,-93.75
1656238965330.1875,-26.3671875,259.27734375,-38.57421875,-78.125,-87.890625
1656238965334.0938,-28.3203125,62.01171875,-174.31640625,-70.80078125,-82.03125
1656238965338,-40.0390625,23.4375,-233.88671875,-69.3359375,-32.71484375
1656238965341.9062,-41.9921875,-33.203125,-287.109375,-69.82421875,13.18359375
1656238965345.8125,-28.3203125,-28.80859375,-307.12890625,-85.44921875,-18.06640625
1656238965349.7188,-30.2734375,-91.30859375,-376.46484375,-82.51953125,17.578125
1656238965353.625,-24.90234375,-675.29296875,-866.2109375,-53.7109375,323.73046875
1656238965357.5312,-30.2734375,-151.3671875,-594.23828125,-38.57421875,186.5234375
1656238965361.4375,-28.80859375,476.5625,-78.125,-56.640625,-107.421875
1656238965365.3438,-0.9765625,197.75390625,-187.98828125,-64.94140625,-41.015625
1656238965369.25,4.39453125,184.5703125,-212.890625,-63.4765625,-50.29296875
1656238965373.1562,0,333.0078125,-83.0078125,-57.6171875,-115.234375
1656238965377.0625,11.23046875,242.67578125,-60.546875,-33.69140625,-76.171875
1656238965380.9688,25.87890625,-25.87890625,-232.421875,-21.484375,-4.8828125
1656238965384.875,51.26953125,98.6328125,-161.62109375,-21.484375,13.671875
1656238965388.7812,44.43359375,54.19921875,-193.84765625,-24.90234375,85.9375
1656238965392.6875,15.13671875,-85.9375,-315.91796875,-36.62109375,34.66796875
1656238965396.5938,-2.9296875,-387.6953125,-562.98828125,-33.69140625,179.19921875
1656238965400.5,-9.765625,-261.23046875,-544.43359375,-25.87890625,213.8671875
1656238965404.4062,0.48828125,406.73828125,-29.296875,-23.4375,-52.734375
1656238965408.3125,2.44140625,277.83203125,-40.0390625,-23.4375,-58.59375
1656238965412.2188,-16.11328125,-64.94140625,-288.0859375,-24.90234375,59.5703125
1656238965416.125,-23.92578125,146.97265625,-121.58203125,-22.94921875,16.11328125
1656238965420.0312,-32.71484375,354.98046875,90.33203125,-38.0859375,-103.515625
1656238965423.9375,-43.45703125,123.046875,-43.9453125,-45.8984375,-27.34375
1656238965427.8438,-51.7578125,-135.7421875,-270.01953125,-42.96875,121.58203125
1656238965431.75,-33.203125,161.1328125,-63.4765625,-31.73828125,28.80859375
1656238965435.6562,-31.25,165.52734375,7.32421875,-17.08984375,27.83203125
1656238965439.5625,-38.57421875,-133.30078125,-195.80078125,-9.765625,178.7109375
1656238965443.4688,-11.23046875,-493.1640625,-531.73828125,1.46484375,312.01171875
1656238965447.375,4.8828125,115.234375,-130.37109375,0.48828125,104.00390625
1656238965451.2812,7.32421875,544.43359375,279.296875,-5.859375,-75.68359375
1656238965455.1875,3.41796875,222.16796875,156.25,6.34765625,22.4609375
1656238965459.0938,-4.39453125,209.9609375,176.7578125,14.16015625,15.13671875
1656238965463,12.20703125,370.1171875,334.9609375,8.7890625,-38.57421875
1656238965466.9062,10.7421875,330.56640625,401.85546875,-1.46484375,12.20703125
1656238965470.8125,-7.32421875,-17.578125,185.05859375,6.34765625,155.76171875
1656238965474.7188,-1.953125,67.87109375,225.09765625,2.9296875,98.6328125
1656238965478.625,-20.99609375,261.23046875,428.7109375,-18.5546875,-15.625
1656238965482.5312,-22.4609375,56.640625,354.98046875,-22.94921875,38.0859375
1656238965486.4375,-1.46484375,-428.7109375,-29.78515625,-18.5546875,288.0859375
1656238965490.3438,-20.5078125,-426.26953125,-130.859375,-22.4609375,351.07421875
1656238965494.25,-29.78515625,382.32421875,522.94921875,-30.2734375,10.25390625
1656238965498.1562,-25.390625,374.51171875,676.7578125,-20.99609375,-62.01171875
1656238965502.0625,-22.4609375,71.77734375,522.4609375,-17.578125,9.27734375
1656238965505.9688,-25.87890625,226.07421875,648.4375,-31.25,-49.8046875
1656238965509.875,-18.06640625,328.61328125,787.59765625,-31.73828125,-92.7734375
1656238965513.7812,15.13671875,125.48828125,720.703125,-4.8828125,-81.54296875
1656238965517.6875,11.71875,-44.921875,605.95703125,9.765625,-59.08203125
1656238965521.5938,-0.48828125,185.05859375,814.453125,8.30078125,-15.625
1656238965525.5,26.85546875,242.67578125,930.6640625,-2.9296875,-43.9453125
1656238965529.4062,29.296875,-108.88671875,692.3828125,-3.90625,19.53125
1656238965533.3125,20.99609375,-348.14453125,492.1875,8.30078125,177.24609375
1656238965537.2188,34.66796875,-100.09765625,728.515625,29.296875,102.5390625
1656238965541.125,25.390625,245.60546875,995.1171875,43.9453125,-38.57421875
1656238965545.0312,18.5546875,-30.2734375,881.34765625,36.62109375,-7.8125
1656238965548.9375,50.29296875,-328.125,713.37890625,42.48046875,141.6015625
1656238965552.8438,81.54296875,182.12890625,933.10546875,48.828125,13.671875
1656238965556.75,50.78125,282.71484375,-997.55859375,46.38671875,-81.0546875
1656238965560.6562,25.87890625,-187.01171875,900.87890625,50.78125,81.0546875
1656238965564.5625,56.640625,-284.66796875,900.87890625,42.48046875,130.37109375
1656238965568.4688,62.01171875,146.484375,980.95703125,35.15625,-79.58984375
1656238965572.375,61.03515625,176.7578125,966.30859375,47.8515625,-97.65625
1656238965576.2812,51.26953125,-301.26953125,938.96484375,52.24609375,135.7421875
1656238965580.1875,47.8515625,-330.078125,957.51953125,54.19921875,144.04296875
1656238965584.0938,60.546875,40.0390625,971.19140625,47.8515625,-21.97265625
1656238965588,58.59375,3.90625,977.05078125,39.0625,29.296875
1656238965591.9062,41.9921875,-590.8203125,895.5078125,35.64453125,226.07421875
1656238965595.8125,34.1796875,-553.7109375,899.4140625,30.76171875,238.76953125
1656238965599.7188,34.66796875,131.34765625,981.4453125,26.85546875,-48.828125
1656238965603.625,25.87890625,18.5546875,965.33203125,21.484375,-92.28515625
1656238965607.5312,33.203125,-165.52734375,968.26171875,16.6015625,-37.109375
1656238965611.4375,33.203125,4.39453125,968.26171875,15.625,-104.00390625
1656238965615.3438,25.390625,48.33984375,968.26171875,14.6484375,-88.37890625
1656238965619.25,-1.953125,-169.921875,968.26171875,0,-36.62109375
1656238965623.1562,22.94921875,-418.9453125,969.23828125,-15.13671875,82.51953125
1656238965627.0625,54.19921875,-354.98046875,965.8203125,-6.8359375,149.90234375
1656238965630.9688,27.83203125,-136.71875,972.16796875,-3.90625,3.41796875
1656238965634.875,-1.953125,-306.15234375,960.44921875,1.953125,21.97265625
1656238965638.7812,0.9765625,-778.80859375,936.5234375,10.25390625,213.37890625
1656238965642.6875,10.7421875,-313.4765625,964.35546875,-9.27734375,34.1796875
1656238965646.5938,25.87890625,-90.33203125,971.6796875,-16.6015625,21.97265625
1656238965650.5,40.52734375,-412.109375,966.796875,-12.6953125,120.60546875
1656238965654.4062,23.92578125,-410.15625,968.75,-4.39453125,91.796875
1656238965658.3125,-13.671875,-39.0625,968.75,-10.25390625,-22.4609375
1656238965662.2188,11.71875,-73.2421875,968.26171875,-13.18359375,-53.7109375
1656238965666.125,40.52734375,-356.4453125,968.75,-20.01953125,13.18359375
1656238965670.0312,2.9296875,-400.390625,967.28515625,-17.08984375,25.87890625
1656238965673.9375,-1.953125,-343.26171875,968.26171875,-16.11328125,70.80078125
1656238965677.8438,1.953125,-167.48046875,975.5859375,-25.87890625,43.45703125
1656238965681.75,-5.859375,-596.19140625,902.83203125,-33.203125,207.51953125
1656238965685.6562,-20.5078125,-510.25390625,919.43359375,-60.05859375,207.51953125
1656238965689.5625,-12.6953125,228.02734375,980.46875,-65.91796875,-54.6875
1656238965693.4688,-10.7421875,91.30859375,964.35546875,-66.40625,-61.5234375
1656238965697.375,-41.015625,-96.6796875,970.703125,-55.6640625,10.25390625
1656238965701.2812,-32.2265625,38.0859375,960.9375,-60.546875,-19.53125
1656238965705.1875,-7.8125,-43.9453125,982.91015625,-73.2421875,-27.83203125
1656238965709.0938,-12.6953125,-158.203125,936.5234375,-72.265625,0
1656238965713,-43.9453125,-177.734375,857.421875,-59.08203125,64.94140625
1656238965716.9062,-55.6640625,-61.5234375,908.203125,-42.96875,83.0078125
1656238965720.8125,-26.3671875,49.8046875,922.8515625,-68.84765625,33.69140625
1656238965724.7188,-32.71484375,30.76171875,804.6875,-77.1484375,47.36328125
1656238965728.625,-33.203125,-337.40234375,396.484375,-64.453125,267.08984375
1656238965732.5312,-21.97265625,199.21875,676.7578125,-56.640625,47.8515625
1656238965736.4375,-40.0390625,552.734375,955.078125,-62.01171875,-147.4609375
1656238965740.3438,-63.96484375,170.8984375,666.50390625,-76.171875,-45.41015625
1656238965744.25,-73.2421875,210.9375,607.91015625,-91.796875,-76.66015625
1656238965748.1562,-68.84765625,432.12890625,700.68359375,-108.3984375,-152.34375
1656238965752.0625,-97.16796875,405.76171875,670.8984375,-112.3046875,-77.1484375
1656238965755.9688,-101.5625,148.4375,418.9453125,-109.375,30.2734375
1656238965759.875,-96.19140625,201.66015625,368.1640625,-107.91015625,4.8828125
1656238965763.7812,-93.26171875,224.609375,338.8671875,-124.0234375,36.1328125
1656238965767.6875,-86.42578125,222.65625,257.8125,-122.55859375,85.44921875
1656238965771.5938,-90.33203125,-145.99609375,-112.3046875,-106.4453125,290.52734375
1656238965775.5,-100.5859375,-356.4453125,-435.05859375,-114.74609375,351.5625
1656238965779.4062,-123.046875,532.71484375,183.10546875,-132.8125,27.83203125
1656238965783.3125,-130.859375,703.125,360.3515625,-143.06640625,-85.44921875
1656238965787.2188,-136.23046875,480.95703125,161.62109375,-146.97265625,5.37109375
1656238965791.125,-143.06640625,638.671875,268.5546875,-142.578125,-68.84765625
1656238965795.0312,-120.1171875,636.71875,284.1796875,-118.1640625,-134.27734375
1656238965798.9375,-104.4921875,435.546875,138.18359375,-87.890625,-28.80859375
1656238965802.8438,-70.80078125,404.296875,84.9609375,-65.4296875,47.36328125
1656238965806.75,-29.78515625,540.0390625,189.94140625,-62.01171875,-11.71875
1656238965810.6562,-56.640625,424.8046875,114.2578125,-64.94140625,78.125
1656238965814.5625,-76.66015625,166.9921875,-76.66015625,-72.75390625,219.7265625
1656238965818.4688,-58.10546875,-307.6171875,-493.65234375,-64.453125,330.56640625
1656238965822.375,-53.22265625,120.60546875,-227.5390625,-72.265625,192.87109375
1656238965826.2812,-48.33984375,705.56640625,285.64453125,-84.9609375,-66.40625
1656238965830.1875,-59.08203125,436.03515625,130.37109375,-71.77734375,-39.0625
1656238965834.0938,-61.5234375,328.61328125,74.70703125,-55.17578125,69.3359375
1656238965838,-56.15234375,563.4765625,309.5703125,-49.8046875,-8.7890625
1656238965841.9062,-20.99609375,553.22265625,364.2578125,-48.828125,-57.6171875
1656238965845.8125,-7.8125,179.19921875,150.390625,-42.48046875,38.0859375
1656238965849.7188,-6.34765625,210.44921875,147.4609375,-32.2265625,15.13671875
1656238965853.625,4.39453125,500.48828125,390.625,-9.27734375,-50.29296875
1656238965857.5312,6.8359375,209.9609375,240.234375,11.23046875,63.96484375
1656238965861.4375,15.13671875,-245.60546875,-104.4921875,18.06640625,284.66796875
1656238965865.3438,39.55078125,-29.78515625,-25.87890625,29.296875,210.44921875
1656238965869.25,73.2421875,609.375,507.32421875,57.6171875,-77.63671875
1656238965873.1562,63.4765625,473.14453125,530.76171875,86.42578125,-84.9609375
1656238965877.0625,66.89453125,-81.54296875,146.484375,96.6796875,107.421875
1656238965880.9688,86.9140625,49.31640625,250,90.8203125,118.65234375
1656238965884.875,100.5859375,487.3046875,597.65625,91.30859375,-41.9921875
1656238965888.7812,104.4921875,333.0078125,536.1328125,102.5390625,-53.22265625
1656238965892.6875,115.72265625,-63.4765625,267.08984375,118.1640625,67.87109375
1656238965896.5938,127.44140625,202.63671875,476.07421875,136.71875,-14.6484375
1656238965900.5,134.27734375,419.43359375,722.16796875,144.04296875,-102.05078125
1656238965904.4062,163.57421875,56.15234375,500.48828125,136.23046875,60.546875
1656238965908.3125,178.7109375,-261.23046875,205.078125,142.08984375,328.61328125
1656238965912.2188,181.15234375,249.0234375,598.6328125,157.71484375,128.41796875
1656238965916.125,197.265625,430.6640625,832.51953125,168.9453125,-88.37890625
1656238965920.0312,200.1953125,72.75390625,619.140625,161.1328125,-1.953125
1656238965923.9375,193.359375,-8.7890625,533.69140625,148.4375,31.25
1656238965927.8438,200.1953125,275.390625,776.3671875,148.92578125,-48.828125
1656238965931.75,190.4296875,295.41015625,891.11328125,164.0625,-43.9453125
1656238965935.6562,173.33984375,-100.5859375,649.4140625,181.640625,36.62109375
1656238965939.5625,162.59765625,-207.03125,589.84375,177.24609375,143.5546875
1656238965943.4688,170.41015625,136.71875,882.8125,161.1328125,88.8671875
1656238965947.375,194.3359375,176.26953125,963.8671875,169.921875,-5.859375
1656238965951.2812,197.75390625,-372.55859375,604.4921875,182.6171875,216.30859375
1656238965955.1875,188.4765625,-483.3984375,479.98046875,181.15234375,231.93359375
1656238965959.0938,201.66015625,60.05859375,878.90625,186.5234375,67.3828125
1656238965963,212.890625,129.8828125,-992.1875,183.59375,20.5078125
1656238965966.9062,216.30859375,-488.28125,576.66015625,175.29296875,258.30078125
1656238965970.8125,216.796875,-374.0234375,586.42578125,182.12890625,270.5078125
1656238965974.7188,196.77734375,151.85546875,987.79296875,182.6171875,-21.484375
1656238965978.625,203.125,-0.48828125,953.61328125,186.03515625,-7.8125
1656238965982.5312,218.75,-132.32421875,923.828125,183.59375,84.9609375
1656238965986.4375,216.796875,12.20703125,963.8671875,173.828125,14.16015625
1656238965990.3438,221.19140625,38.0859375,978.515625,173.828125,-33.69140625
1656238965994.25,220.703125,-181.640625,946.2890625,181.640625,25.87890625
1656238965998.1562,214.84375,-407.71484375,804.6875,186.03515625,172.36328125
1656238966002.0625,210.44921875,-392.08984375,747.0703125,168.9453125,192.87109375
1656238966005.9688,195.80078125,-193.359375,878.41796875,151.3671875,142.08984375
1656238966009.875,185.546875,-285.15625,814.94140625,158.203125,109.375
1656238966013.7812,190.91796875,-874.0234375,232.91015625,178.22265625,256.34765625
1656238966017.6875,190.91796875,-375.9765625,540.52734375,167.96875,113.28125
1656238966021.5938,178.7109375,195.3125,-971.19140625,143.06640625,-125.48828125
1656238966025.5,175.78125,-93.26171875,890.13671875,134.27734375,-75.1953125
1656238966029.4062,173.828125,-57.12890625,910.64453125,131.8359375,-89.84375
1656238966033.3125,158.69140625,80.078125,979.98046875,123.046875,-88.8671875
1656238966037.2188,149.4140625,0.9765625,971.19140625,111.81640625,-55.6640625
1656238966041.125,156.73828125,-253.90625,807.12890625,110.83984375,13.18359375
1656238966045.0312,162.109375,-328.61328125,667.48046875,102.5390625,77.1484375
1656238966048.9375,162.59765625,-220.21484375,672.8515625,96.6796875,57.12890625
1656238966052.8438,171.38671875,-153.3203125,686.5234375,108.88671875,-10.25390625
1656238966056.75,170.8984375,-615.72265625,270.99609375,135.25390625,190.91796875
1656238966060.6562,176.26953125,-746.09375,15.625,137.20703125,290.0390625
1656238966064.5625,196.2890625,223.14453125,687.5,119.62890625,-28.3203125
1656238966068.4688,189.453125,362.3046875,866.2109375,109.375,-103.02734375
1656238966072.375,188.4765625,-0.48828125,583.49609375,118.65234375,-63.96484375
1656238966076.2812,184.08203125,168.45703125,690.4296875,125.9765625,-106.4453125
1656238966080.1875,166.015625,254.39453125,762.20703125,109.375,-109.375
1656238966084.0938,179.6875,111.328125,632.8125,103.515625,-59.08203125
1656238966088,186.03515625,52.734375,530.2734375,104.4921875,-14.16015625
1656238966091.9062,162.59765625,-62.5,388.671875,105.46875,-17.578125
1656238966095.8125,155.2734375,-52.24609375,349.609375,104.98046875,-11.23046875
1656238966099.7188,160.15625,-131.34765625,245.60546875,90.33203125,87.890625
1656238966103.625,157.71484375,-475.5859375,-152.34375,79.58984375,253.41796875
1656238966107.5312,137.6953125,127.44140625,222.16796875,66.89453125,79.1015625
1656238966111.4375,113.76953125,455.078125,539.55078125,63.96484375,-100.5859375
1656238966115.3438,112.79296875,-137.20703125,104.4921875,84.9609375,32.71484375
1656238966119.25,115.234375,-376.953125,-184.08203125,84.9609375,167.48046875
1656238966123.1562,120.1171875,244.140625,237.79296875,33.203125,-44.921875
1656238966127.0625,92.28515625,325.68359375,348.6328125,15.13671875,-116.69921875
1656238966130.9688,55.6640625,-84.9609375,41.015625,13.18359375,-8.30078125
1656238966134.875,39.55078125,29.296875,74.70703125,2.44140625,-9.765625
1656238966138.7812,24.4140625,-31.25,3.90625,7.8125,-3.41796875
1656238966142.6875,30.2734375,-123.53515625,-102.05078125,4.39453125,91.30859375
1656238966146.5938,46.38671875,-403.3203125,-418.45703125,-0.9765625,199.21875
1656238966150.5,41.50390625,-353.02734375,-549.8046875,0.48828125,137.6953125
1656238966154.4062,37.109375,322.265625,-76.66015625,11.23046875,-60.05859375
1656238966158.3125,27.83203125,253.90625,-62.01171875,16.11328125,-56.640625
1656238966162.2188,36.62109375,8.30078125,-291.50390625,6.34765625,11.23046875
1656238966166.125,62.5,194.3359375,-227.5390625,9.765625,-48.33984375
1656238966170.0312,67.3828125,261.23046875,-199.21875,28.3203125,-80.078125
1656238966173.9375,73.2421875,-91.30859375,-513.18359375,58.10546875,29.296875
1656238966177.8438,62.5,-266.11328125,-761.71875,60.546875,130.859375
1656238966181.75,42.48046875,117.67578125,-525.390625,22.94921875,5.37109375
1656238966185.6562,39.0625,135.25390625,-576.66015625,1.953125,9.27734375
1656238966189.5625,46.38671875,-173.33984375,-840.8203125,12.20703125,164.55078125
1656238966193.4688,46.38671875,-526.3671875,-969.23828125,37.109375,308.10546875
1656238966197.375,41.9921875,80.56640625,-752.9296875,35.64453125,80.078125
1656238966201.2812,56.15234375,505.37109375,-584.47265625,44.921875,-85.44921875
1656238966205.1875,71.2890625,187.01171875,-814.94140625,64.453125,-27.83203125
1656238966209.0938,85.9375,179.19921875,-922.36328125,68.84765625,-42.48046875
1656238966213,110.83984375,335.44921875,-869.140625,92.28515625,-94.7265625
1656238966216.9062,91.796875,252.44140625,-957.03125,99.12109375,-137.20703125
1656238966220.8125,62.01171875,29.78515625,-1000,72.265625,-22.4609375
1656238966224.7188,71.2890625,205.078125,-997.55859375,49.8046875,27.34375
1656238966228.625,85.9375,331.54296875,-1000,48.33984375,-12.6953125
1656238966232.5312,68.84765625,123.53515625,-1000,43.9453125,53.7109375
1656238966236.4375,50.29296875,-388.18359375,-1000,43.9453125,245.1171875
1656238966240.3438,58.59375,-398.4375,-1000,32.71484375,254.39453125
1656238966244.25,58.59375,442.3828125,-1000,8.30078125,-43.9453125
1656238966248.1562,60.546875,486.81640625,-1000,8.7890625,-93.75
1656238966252.0625,59.08203125,-50.78125,-1000,28.80859375,103.02734375
1656238966255.9688,24.4140625,202.1484375,-1000,-0.9765625,74.21875
1656238966259.875,2.9296875,511.23046875,-1000,-39.55078125,-90.8203125
1656238966263.7812,7.8125,322.265625,-1000,-46.875,-70.80078125
1656238966267.6875,2.44140625,193.359375,-1000,-51.26953125,-6.8359375
1656238966271.5938,-9.27734375,333.984375,-1000,-48.828125,-54.6875
1656238966275.5,-26.3671875,386.71875,-1000,-54.19921875,-120.60546875
1656238966279.4062,-21.484375,-0.48828125,-1000,-81.0546875,6.34765625
1656238966283.3125,-19.04296875,-314.453125,-1000,-87.890625,193.359375
1656238966287.2188,-13.671875,200.68359375,-1000,-75.68359375,35.64453125
1656238966291.125,-15.625,381.8359375,-1000,-76.171875,-17.578125
1656238966295.0312,-27.83203125,61.5234375,-1000,-78.125,111.328125
1656238966298.9375,-45.8984375,-184.08203125,-1000,-86.42578125,207.51953125
1656238966302.8438,-53.7109375,364.2578125,-1000,-110.3515625,17.08984375
1656238966306.75,-58.10546875,564.453125,-1000,-121.58203125,-71.2890625
1656238966310.6562,-60.546875,197.75390625,-1000,-117.67578125,-31.25
1656238966314.5625,-59.08203125,268.5546875,-1000,-110.83984375,-8.7890625
1656238966318.4688,-65.91796875,406.73828125,-1000,-117.1875,-53.22265625
1656238966322.375,-63.4765625,296.875,-1000,-130.37109375,-78.61328125
1656238966326.2812,-90.33203125,-89.84375,-1000,-156.25,67.3828125
1656238966330.1875,-115.234375,-121.58203125,-1000,-166.9921875,89.84375
1656238966334.0938,-124.0234375,221.6796875,-1000,-167.48046875,-10.25390625
1656238966338,-160.64453125,187.98828125,-1000,-197.75390625,-84.47265625
1656238966341.9062,-171.875,-374.51171875,-1000,-216.796875,91.796875
1656238966345.8125,-143.06640625,-205.078125,-1000,-208.984375,124.0234375
1656238966349.7188,-148.4375,251.953125,-1000,-190.4296875,22.4609375
1656238966353.625,-165.52734375,108.3984375,-997.55859375,-185.05859375,-2.9296875
1656238966357.5312,-158.69140625,-311.5234375,-1000,-215.33203125,172.8515625
1656238966361.4375,-143.06640625,77.63671875,-978.515625,-221.6796875,127.9296875
1656238966365.3438,-141.6015625,398.92578125,-940.91796875,-202.63671875,-16.11328125
1656238966369.25,-129.8828125,115.234375,-980.95703125,-178.22265625,-10.7421875
1656238966373.1562,-117.67578125,-161.62109375,-1000,-167.48046875,12.6953125
1656238966377.0625,-117.67578125,-166.50390625,-1000,-155.2734375,14.6484375
1656238966380.9688,-99.12109375,192.3828125,-892.08984375,-142.578125,-55.6640625
1656238966384.875,-75.68359375,-0.48828125,-884.27734375,-130.37109375,19.04296875
1656238966388.7812,-42.48046875,-604.00390625,-1000,-114.74609375,258.30078125
1656238966392.6875,-37.109375,10.25390625,-806.15234375,-99.12109375,54.6875
1656238966396.5938,-22.4609375,391.11328125,-583.0078125,-69.3359375,-67.3828125
1656238966400.5,8.30078125,41.9921875,-691.89453125,-43.45703125,-1.46484375
1656238966404.4062,29.296875,71.77734375,-672.8515625,-29.78515625,13.671875
1656238966408.3125,49.31640625,96.19140625,-599.609375,-20.01953125,44.921875
1656238966412.2188,55.17578125,144.53125,-509.765625,0,-32.71484375
1656238966416.125,55.17578125,-104.4921875,-629.39453125,27.34375,90.33203125
1656238966420.0312,59.5703125,-236.328125,-720.703125,27.83203125,145.01953125
1656238966423.9375,64.453125,-5.37109375,-577.1484375,12.6953125,36.1328125
1656238966427.8438,67.87109375,221.19140625,-389.16015625,22.4609375,-23.4375
1656238966431.75,76.171875,-234.375,-676.7578125,52.734375,132.32421875
1656238966435.6562,76.66015625,-239.2578125,-716.30859375,65.4296875,217.28515625
1656238966439.5625,95.21484375,431.640625,-143.5546875,61.5234375,12.6953125
1656238966443.4688,114.74609375,269.53125,-142.578125,74.70703125,-7.8125
1656238966447.375,120.1171875,32.71484375,-309.5703125,79.58984375,3.41796875
1656238966451.2812,108.3984375,195.80078125,-147.94921875,81.0546875,-49.31640625
1656238966455.1875,99.12109375,209.47265625,-60.05859375,80.56640625,-60.05859375
1656238966459.0938,92.28515625,19.04296875,-144.53125,67.3828125,-13.671875
1656238966463,82.03125,-104.4921875,-238.28125,50.29296875,33.69140625
1656238966466.9062,98.6328125,-132.8125,-272.4609375,48.33984375,89.35546875
1656238966470.8125,94.23828125,-140.13671875,-285.15625,50.78125,75.1953125
1656238966474.7188,69.82421875,-264.6484375,-355.95703125,51.26953125,117.67578125
1656238966478.625,70.80078125,-795.41015625,-820.3125,56.640625,351.5625
1656238966482.5312,102.5390625,-299.8046875,-558.59375,52.734375,187.5
1656238966486.4375,122.55859375,350.09765625,-0.48828125,52.24609375,-98.14453125
1656238966490.3438,119.140625,72.265625,-148.92578125,61.03515625,-59.08203125
1656238966494.25,97.16796875,24.4140625,-172.36328125,59.5703125,-42.96875
1656238966498.1562,92.28515625,158.203125,-19.04296875,54.19921875,-78.125
1656238966502.0625,100.5859375,29.78515625,-97.16796875,41.9921875,-60.05859375
1656238966505.9688,113.76953125,-198.2421875,-301.7578125,43.45703125,-21.484375
1656238966509.875,98.6328125,-64.94140625,-220.21484375,42.48046875,0.48828125
1656238966513.7812,62.5,-144.04296875,-265.13671875,30.76171875,52.24609375
1656238966517.6875,59.5703125,-291.015625,-381.8359375,34.66796875,41.50390625
1656238966521.5938,62.98828125,-586.42578125,-672.36328125,43.9453125,205.078125
1656238966525.5,60.05859375,-556.640625,-816.40625,29.296875,245.1171875
1656238966529.4062,59.5703125,205.078125,-265.625,11.23046875,-57.6171875
1656238966533.3125,42.48046875,176.26953125,-192.3828125,7.8125,-86.42578125
1656238966537.2188,39.0625,-353.515625,-598.14453125,17.08984375,104.00390625
1656238966541.125,42.96875,-66.40625,-423.33984375,2.9296875,35.15625
1656238966545.0312,33.69140625,231.4453125,-162.59765625,-26.85546875,-66.89453125
1656238966548.9375,39.0625,1.46484375,-318.359375,-22.4609375,-40.0390625
1656238966552.8438,52.24609375,-110.3515625,-423.33984375,-4.8828125,-2.44140625
1656238966556.75,22.94921875,-3.41796875,-336.9140625,-11.71875,-0.9765625
1656238966560.6562,1.46484375,-179.6875,-469.23828125,-29.296875,70.3125
1656238966564.5625,12.6953125,-319.82421875,-647.4609375,-43.45703125,118.1640625
1656238966568.4688,16.6015625,-168.9453125,-625.48828125,-39.55078125,84.9609375
1656238966572.375,20.01953125,55.17578125,-467.7734375,-15.625,-34.66796875
1656238966576.2812,26.3671875,160.15625,-371.58203125,-2.9296875,-95.703125
1656238966580.1875,41.9921875,-225.5859375,-576.171875,10.7421875,48.828125
1656238966584.0938,59.08203125,-769.04296875,-926.26953125,6.34765625,282.71484375
1656238966588,56.640625,-57.12890625,-635.25390625,-3.90625,54.19921875
1656238966591.9062,38.0859375,278.3203125,-431.15234375,-5.37109375,-108.3984375
1656238966595.8125,31.73828125,-170.8984375,-675.78125,3.90625,30.76171875
1656238966599.7188,30.76171875,-131.34765625,-671.875,-4.8828125,7.32421875
1656238966603.625,32.2265625,119.62890625,-493.65234375,-19.53125,-41.015625
1656238966607.5312,53.7109375,-108.88671875,-642.578125,3.90625,117.67578125
1656238966611.4375,42.96875,-504.8828125,-907.2265625,19.04296875,324.21875
1656238966615.3438,31.25,-231.4453125,-763.671875,-6.8359375,164.55078125
1656238966619.25,41.50390625,113.76953125,-555.17578125,-17.08984375,-81.0546875
1656238966623.1562,35.15625,-30.76171875,-615.72265625,-20.01953125,-80.56640625
1656238966627.0625,32.2265625,-541.9921875,-900.87890625,-22.94921875,84.9609375
1656238966630.9688,31.25,-294.921875,-842.28515625,-20.01953125,2.44140625
1656238966634.875,11.71875,135.7421875,-593.75,-24.4140625,-135.25390625
1656238966638.7812,-5.859375,-153.3203125,-723.6328125,-41.50390625,-78.61328125
1656238966642.6875,-9.27734375,-367.1875,-933.59375,-64.94140625,34.66796875
1656238966646.5938,-1.46484375,-88.8671875,-742.1875,-72.265625,-20.99609375
1656238966650.5,-9.27734375,38.57421875,-637.20703125,-82.03125,-100.5859375
1656238966654.4062,-40.0390625,-318.359375,-835.44921875,-109.86328125,83.49609375
1656238966658.3125,-45.41015625,-909.66796875,-1000,-103.02734375,422.8515625
1656238966662.2188,-39.0625,-446.2890625,-877.44140625,-104.00390625,243.1640625
1656238966666.125,-40.52734375,232.421875,-594.7265625,-122.55859375,-69.3359375
1656238966670.0312,-43.45703125,15.625,-645.01953125,-106.4453125,-41.50390625
1656238966673.9375,-56.640625,-87.890625,-715.8203125,-91.30859375,-13.18359375
1656238966677.8438,-49.31640625,-25.390625,-672.8515625,-98.6328125,-17.08984375
1656238966681.75,-31.73828125,19.04296875,-618.65234375,-95.703125,-83.49609375
1656238966685.6562,-31.25,-124.51171875,-708.984375,-95.703125,-41.50390625
1656238966689.5625,-50.78125,-92.28515625,-691.40625,-103.515625,-31.25
1656238966693.4688,-71.77734375,45.41015625,-552.24609375,-100.09765625,-98.6328125
1656238966697.375,-88.8671875,-75.1953125,-561.03515625,-108.3984375,-60.546875
1656238966701.2812,-91.30859375,-403.80859375,-805.17578125,-133.7890625,76.171875
1656238966705.1875,-87.890625,-379.8828125,-842.7734375,-145.5078125,101.07421875
1656238966709.0938,-92.28515625,-148.92578125,-664.0625,-145.01953125,45.8984375
1656238966713,-97.16796875,-3.90625,-504.8828125,-135.25390625,-43.9453125
1656238966716.9062,-99.12109375,-584.9609375,-818.359375,-130.37109375,166.015625
1656238966720.8125,-115.234375,-645.5078125,-900.87890625,-149.4140625,238.76953125
1656238966724.7188,-134.27734375,194.3359375,-315.4296875,-186.03515625,-72.75390625
1656238966728.625,-150.87890625,165.52734375,-178.22265625,-201.66015625,-66.40625
1656238966732.5312,-152.34375,-109.86328125,-289.0625,-197.265625,7.8125
1656238966736.4375,-138.18359375,-17.578125,-148.92578125,-176.26953125,-21.484375
1656238966740.3438,-123.046875,48.828125,-13.671875,-156.25,-32.2265625
1656238966744.25,-119.62890625,-101.07421875,-60.546875,-167.96875,-10.25390625
1656238966748.1562,-127.9296875,-375,-236.328125,-183.10546875,83.0078125
1656238966752.0625,-120.1171875,-384.765625,-242.1875,-166.015625,64.453125
1656238966755.9688,-84.9609375,-103.515625,8.30078125,-138.18359375,-15.625
1656238966759.875,-58.10546875,-247.0703125,-26.85546875,-125.9765625,86.42578125
1656238966763.7812,-41.50390625,-823.2421875,-497.55859375,-98.14453125,357.91015625
1656238966767.6875,-5.859375,-241.69921875,-124.0234375,-61.5234375,172.8515625
1656238966771.5938,7.32421875,315.91796875,416.015625,-33.69140625,-85.9375
1656238966775.5,15.13671875,-30.2734375,295.8984375,2.9296875,-14.16015625
1656238966779.4062,25.390625,27.34375,391.6015625,-3.90625,1.46484375
1656238966783.3125,23.92578125,199.70703125,586.42578125,-9.27734375,-77.63671875
1656238966787.2188,40.52734375,111.328125,573.73046875,12.20703125,-101.5625
1656238966791.125,75.1953125,-139.6484375,418.45703125,35.64453125,16.6015625
1656238966795.0312,80.078125,-285.15625,357.421875,62.01171875,105.95703125
1656238966798.9375,74.70703125,-162.109375,424.8046875,64.94140625,74.21875
1656238966802.8438,90.8203125,91.30859375,612.3046875,64.94140625,-33.69140625
1656238966806.75,102.5390625,-299.31640625,366.2109375,62.98828125,170.8984375
1656238966810.6562,93.26171875,-280.76171875,331.54296875,65.91796875,229.00390625
1656238966814.5625,90.8203125,321.77734375,840.33203125,74.21875,-16.6015625
1656238966818.4688,107.421875,54.6875,771.484375,75.68359375,83.984375
1656238966822.375,114.2578125,-264.6484375,563.96484375,72.75390625,174.8046875
1656238966826.2812,126.46484375,164.55078125,868.1640625,76.171875,-26.3671875
1656238966830.1875,137.6953125,365.72265625,-991.2109375,86.42578125,-93.75
1656238966834.0938,125.9765625,84.47265625,936.5234375,85.9375,-55.17578125
1656238966838,119.62890625,-1.46484375,955.56640625,86.42578125,-11.23046875
1656238966841.9062,135.7421875,-30.2734375,944.82421875,89.35546875,55.17578125
1656238966845.8125,131.8359375,7.32421875,990.234375,75.1953125,29.296875
1656238966849.7188,114.74609375,-74.21875,918.9453125,75.1953125,42.48046875
1656238966853.625,92.7734375,-560.05859375,542.48046875,79.1015625,260.7421875
1656238966857.5312,82.51953125,19.04296875,813.96484375,59.08203125,83.984375
1656238966861.4375,107.91015625,482.421875,-972.16796875,42.48046875,-92.28515625
1656238966865.3438,106.93359375,167.96875,934.08203125,39.55078125,19.04296875
1656238966869.25,84.9609375,192.3828125,965.33203125,42.48046875,3.90625
1656238966873.1562,70.80078125,230.46875,968.75,51.26953125,-75.68359375
1656238966877.0625,70.80078125,20.01953125,975.5859375,39.55078125,26.85546875
1656238966880.9688,81.54296875,-129.8828125,929.6875,34.1796875,197.265625
1656238966884.875,88.37890625,44.921875,931.15234375,38.0859375,124.51171875
1656238966888.7812,64.94140625,117.1875,966.30859375,33.69140625,111.328125
1656238966892.6875,46.875,-24.4140625,-999.0234375,27.83203125,130.37109375
1656238966896.5938,35.15625,-364.2578125,760.25390625,18.5546875,264.16015625
1656238966900.5,33.203125,-288.0859375,672.8515625,0.48828125,206.0546875
1656238966904.4062,57.6171875,385.7421875,976.07421875,-3.90625,-87.890625
1656238966908.3125,65.91796875,312.5,961.42578125,13.18359375,-93.75
1656238966912.2188,72.75390625,0,896.484375,34.1796875,5.859375
1656238966916.125,79.58984375,151.3671875,951.66015625,40.0390625,-26.3671875
1656238966920.0312,85.9375,218.26171875,989.74609375,31.25,-102.5390625
1656238966923.9375,99.609375,53.22265625,923.33984375,29.78515625,-78.125
1656238966927.8438,87.890625,-8.7890625,833.49609375,34.1796875,-1.46484375
1656238966931.75,89.35546875,70.80078125,827.63671875,49.31640625,10.7421875
1656238966935.6562,112.79296875,-46.38671875,696.2890625,70.80078125,2.44140625
1656238966939.5625,132.8125,-202.63671875,512.6953125,80.078125,118.1640625
1656238966943.4688,145.01953125,-655.2734375,-3.90625,87.890625,409.66796875
1656238966947.375,172.36328125,-176.7578125,158.203125,106.93359375,240.234375
1656238966951.2812,184.5703125,440.4296875,638.18359375,120.60546875,-51.26953125
1656238966955.1875,186.03515625,171.38671875,472.16796875,139.16015625,-31.25
1656238966959.0938,211.42578125,170.41015625,429.6875,157.2265625,-28.3203125
1656238966963,223.14453125,345.21484375,536.1328125,168.45703125,-68.359375
1656238966966.9062,235.3515625,318.359375,502.9296875,176.7578125,-47.8515625
1656238966970.8125,262.6953125,37.59765625,262.20703125,209.47265625,62.5
1656238966974.7188,293.9453125,106.4453125,262.6953125,251.46484375,44.921875
1656238966978.625,309.5703125,237.79296875,318.84765625,262.20703125,-45.41015625
1656238966982.5312,310.05859375,66.40625,131.34765625,267.578125,26.85546875
1656238966986.4375,334.9609375,-330.078125,-290.52734375,274.90234375,262.20703125
1656238966990.3438,336.9140625,-328.61328125,-488.28125,284.66796875,232.421875
1656238966994.25,334.47265625,276.85546875,-89.35546875,288.57421875,-7.8125
1656238966998.1562,334.47265625,384.27734375,33.69140625,278.3203125,-41.015625
1656238967002.0625,337.40234375,68.359375,-211.9140625,274.4140625,144.53125
1656238967005.9688,347.16796875,335.44921875,-76.171875,282.71484375,69.82421875
1656238967009.875,342.28515625,528.3203125,68.84765625,300.29296875,-95.703125
1656238967013.7812,352.05078125,292.96875,-83.984375,324.70703125,-52.734375
1656238967017.6875,365.72265625,201.171875,-174.31640625,330.56640625,31.25
1656238967021.5938,375.48828125,376.46484375,-61.03515625,321.77734375,12.20703125
1656238967025.5,368.65234375,440.91796875,-20.99609375,303.7109375,-71.2890625
1656238967029.4062,350.5859375,26.3671875,-361.81640625,296.875,75.68359375
1656238967033.3125,339.35546875,-303.7109375,-719.7265625,310.546875,315.4296875
1656238967037.2188,337.890625,245.1171875,-379.39453125,303.22265625,71.77734375
1656238967041.125,338.37890625,554.19921875,-98.14453125,284.66796875,-136.23046875
1656238967045.0312,341.796875,305.6640625,-232.91015625,278.80859375,1.46484375
1656238967048.9375,347.65625,171.875,-381.8359375,288.0859375,100.09765625
1656238967052.8438,334.9609375,296.38671875,-314.453125,311.5234375,72.265625
1656238967056.75,319.3359375,463.37890625,-121.09375,313.96484375,2.9296875
1656238967060.6562,328.61328125,258.7890625,-280.2734375,309.08203125,24.4140625
1656238967064.5625,326.171875,235.3515625,-360.83984375,287.59765625,62.5
1656238967068.4688,286.62109375,540.0390625,-100.5859375,243.65234375,-43.9453125
1656238967072.375,253.90625,465.8203125,-91.796875,226.07421875,-104.4921875
1656238967076.2812,235.83984375,69.82421875,-376.953125,218.26171875,48.828125
1656238967080.1875,229.98046875,52.734375,-442.3828125,198.73046875,102.05078125
1656238967084.0938,231.4453125,472.65625,-125.48828125,181.640625,-36.62109375
1656238967088,230.46875,508.30078125,-52.734375,189.94140625,-37.109375
1656238967091.9062,240.234375,-72.265625,-473.14453125,212.890625,172.36328125
1656238967095.8125,236.328125,59.5703125,-421.875,208.49609375,173.33984375
1656238967099.7188,239.2578125,537.109375,-55.6640625,189.453125,31.25
1656238967103.625,247.0703125,450.68359375,-67.87109375,171.38671875,-25.390625
1656238967107.5312,236.328125,278.80859375,-185.546875,162.59765625,20.5078125
1656238967111.4375,215.33203125,228.515625,-229.00390625,166.50390625,102.5390625
1656238967115.3438,208.984375,408.69140625,-69.3359375,170.41015625,-36.1328125
1656238967119.25,215.33203125,325.1953125,-93.26171875,164.55078125,-12.20703125
1656238967123.1562,213.37890625,-244.62890625,-578.125,149.4140625,204.1015625
1656238967127.0625,209.47265625,-3.41796875,-462.890625,136.71875,96.19140625
1656238967130.9688,195.3125,540.52734375,-22.94921875,141.6015625,-56.15234375
1656238967134.875,181.640625,238.76953125,-181.15234375,159.1796875,-9.765625
1656238967138.7812,192.87109375,-264.16015625,-594.7265625,159.66796875,194.82421875
1656238967142.6875,196.2890625,312.98828125,-203.125,145.5078125,23.4375
1656238967146.5938,180.17578125,537.59765625,29.78515625,124.51171875,-85.44921875
1656238967150.5,167.48046875,167.48046875,-203.125,116.69921875,0.48828125
1656238967154.4062,159.66796875,220.21484375,-157.2265625,131.34765625,-0.9765625
1656238967158.3125,169.921875,393.5546875,3.41796875,127.9296875,-37.109375
1656238967162.2188,186.5234375,301.26953125,-37.109375,115.72265625,-61.03515625
1656238967166.125,180.17578125,26.3671875,-242.67578125,115.72265625,26.3671875
1656238967170.0312,181.15234375,-33.69140625,-314.453125,129.8828125,135.25390625
1656238967173.9375,187.5,64.453125,-270.99609375,145.01953125,147.4609375
1656238967177.8438,187.5,-16.6015625,-335.44921875,141.11328125,161.62109375
1656238967181.75,203.125,-178.7109375,-479.4921875,140.625,161.1328125
1656238967185.6562,217.7734375,123.046875,-312.98828125,163.0859375,-2.9296875
1656238967189.5625,210.44921875,359.375,-116.2109375,154.296875,-109.375
1656238967193.4688,200.1953125,239.2578125,-105.46875,147.4609375,-93.26171875
1656238967197.375,198.2421875,-491.2109375,-650.87890625,154.296875,226.07421875
1656238967201.2812,186.03515625,-498.046875,-788.57421875,136.23046875,330.56640625
1656238967205.1875,179.6875,312.01171875,-175.29296875,125.48828125,-9.27734375
1656238967209.0938,194.3359375,300.78125,-83.984375,143.5546875,-58.59375
1656238967213,194.82421875,106.93359375,-196.77734375,143.5546875,22.94921875
1656238967216.9062,187.5,-25.390625,-274.90234375,130.37109375,-2.44140625
1656238967220.8125,188.4765625,-34.1796875,-293.45703125,117.1875,-28.80859375
1656238967224.7188,189.453125,-87.890625,-360.83984375,115.72265625,68.84765625
1656238967228.625,178.22265625,-607.421875,-814.453125,120.60546875,414.55078125
1656238967232.5312,156.25,-158.203125,-580.56640625,108.88671875,210.9375
1656238967236.4375,156.25,424.8046875,-72.265625,102.05078125,-124.0234375
1656238967240.3438,167.48046875,151.3671875,-167.48046875,96.6796875,-45.41015625
1656238967244.25,174.8046875,145.01953125,-189.94140625,97.16796875,-12.20703125
1656238967248.1562,173.33984375,323.73046875,-51.26953125,115.234375,-51.7578125
1656238967252.0625,154.78515625,199.21875,-105.46875,117.67578125,-65.91796875
1656238967255.9688,140.625,-69.3359375,-304.6875,111.328125,18.06640625
1656238967259.875,148.92578125,-24.90234375,-308.10546875,103.515625,-17.578125
1656238967263.7812,137.6953125,-101.07421875,-370.60546875,69.3359375,-26.3671875
1656238967267.6875,87.890625,-133.7890625,-415.52734375,22.4609375,51.26953125
1656238967271.5938,38.0859375,-435.546875,-680.6640625,6.34765625,208.984375
1656238967275.5,23.4375,-432.12890625,-784.66796875,-5.37109375,188.96484375
1656238967279.4062,54.19921875,270.99609375,-270.01953125,2.44140625,-80.078125
1656238967283.3125,79.58984375,175.29296875,-288.57421875,36.62109375,-51.26953125
1656238967287.2188,93.75,-145.99609375,-550.29296875,58.10546875,114.74609375
1656238967291.125,89.35546875,124.51171875,-355.95703125,48.828125,1.953125
1656238967295.0312,55.6640625,256.34765625,-212.890625,26.85546875,-111.81640625
1656238967298.9375,43.45703125,6.8359375,-361.328125,5.37109375,-49.8046875
1656238967302.8438,57.12890625,-131.34765625,-541.015625,6.8359375,16.6015625
1656238967306.75,71.77734375,105.95703125,-402.83203125,31.73828125,-13.671875
1656238967310.6562,68.359375,39.55078125,-441.89453125,43.45703125,32.2265625
1656238967314.5625,84.9609375,-218.26171875,-632.32421875,63.4765625,174.8046875
1656238967318.4688,110.3515625,-586.42578125,-910.64453125,86.9140625,376.46484375
1656238967322.375,127.44140625,6.8359375,-614.2578125,70.80078125,146.484375
1656238967326.2812,135.7421875,543.9453125,-206.54296875,63.96484375,-42.48046875
1656238967330.1875,111.81640625,235.3515625,-371.09375,75.1953125,39.55078125
1656238967334.0938,101.07421875,168.45703125,-433.10546875,83.0078125,22.94921875
1656238967338,111.81640625,300.78125,-320.3125,77.63671875,-39.0625
1656238967341.9062,110.3515625,284.66796875,-306.15234375,64.94140625,-20.01953125
1656238967345.8125,95.703125,-31.25,-543.9453125,68.84765625,197.75390625
1656238967349.7188,85.9375,37.109375,-583.49609375,56.15234375,170.8984375
1656238967353.625,92.7734375,326.171875,-359.375,50.78125,-6.8359375
1656238967357.5312,99.609375,129.39453125,-435.05859375,64.94140625,83.984375
1656238967361.4375,84.9609375,-333.984375,-795.41015625,58.10546875,351.5625
1656238967365.3438,80.078125,-224.12109375,-791.015625,45.41015625,298.33984375
1656238967369.25,83.984375,463.37890625,-263.671875,39.55078125,-43.9453125
1656238967373.1562,74.70703125,391.6015625,-238.76953125,47.36328125,-58.59375
1656238967377.0625,66.89453125,81.54296875,-437.98828125,42.48046875,36.62109375
1656238967380.9688,84.9609375,229.98046875,-308.59375,49.8046875,-12.20703125
1656238967384.875,116.2109375,390.625,-142.08984375,66.89453125,-73.2421875
1656238967388.7812,124.0234375,215.33203125,-209.47265625,80.078125,-66.89453125
1656238967392.6875,100.09765625,24.4140625,-368.65234375,80.078125,-12.6953125
1656238967396.5938,96.6796875,114.2578125,-306.640625,68.84765625,-72.75390625
1656238967400.5,121.09375,209.47265625,-169.921875,68.359375,-104.00390625
1656238967404.4062,112.3046875,-4.8828125,-298.33984375,70.80078125,50.29296875
1656238967408.3125,102.5390625,-383.30078125,-626.953125,66.40625,263.671875
1656238967412.2188,109.86328125,-98.14453125,-447.265625,56.15234375,178.7109375
1656238967416.125,93.75,364.74609375,-36.1328125,50.29296875,-7.8125
1656238967420.0312,88.37890625,83.0078125,-153.80859375,52.24609375,63.96484375
1656238967423.9375,89.35546875,-320.3125,-467.28515625,32.2265625,245.1171875
1656238967427.8438,77.1484375,257.32421875,-41.9921875,15.625,35.15625
1656238967431.75,72.265625,392.578125,139.16015625,21.97265625,-109.375
1656238967435.6562,70.80078125,20.5078125,-57.6171875,28.3203125,17.578125
1656238967439.5625,82.51953125,47.36328125,-18.5546875,21.97265625,19.04296875
1656238967443.4688,82.51953125,247.0703125,155.2734375,26.85546875,-80.56640625
1656238967447.375,64.453125,239.2578125,234.86328125,36.1328125,-37.109375
1656238967451.2812,60.546875,-213.37890625,-57.6171875,20.01953125,126.953125
1656238967455.1875,46.38671875,-311.03515625,-178.22265625,7.32421875,114.2578125
1656238967459.0938,37.59765625,11.71875,62.98828125,12.20703125,-30.2734375
1656238967463,44.43359375,43.9453125,178.7109375,5.859375,14.16015625
1656238967466.9062,53.7109375,-430.6640625,-166.9921875,4.8828125,257.8125
1656238967470.8125,33.69140625,-436.5234375,-270.01953125,2.9296875,308.10546875
1656238967474.7188,33.69140625,270.01953125,300.78125,4.8828125,25.390625
1656238967478.625,68.84765625,184.08203125,331.54296875,27.34375,-48.33984375
1656238967482.5312,87.890625,31.25,268.5546875,37.109375,40.52734375
1656238967486.4375,89.84375,237.3046875,479.4921875,34.1796875,-8.7890625
1656238967490.3438,101.07421875,218.75,501.953125,56.15234375,-68.84765625
1656238967494.25,104.00390625,-42.48046875,330.078125,74.70703125,-63.4765625
1656238967498.1562,114.74609375,-309.5703125,105.95703125,83.49609375,19.04296875
1656238967502.0625,128.41796875,-242.1875,125.9765625,93.26171875,107.421875
1656238967505.9688,128.41796875,102.5390625,410.64453125,100.09765625,28.80859375
1656238967509.875,121.58203125,0,392.08984375,109.375,60.05859375
1656238967513.7812,119.62890625,-664.0625,-152.83203125,104.4921875,284.1796875
1656238967517.6875,128.41796875,-213.37890625,100.5859375,89.35546875,75.1953125
1656238967521.5938,127.9296875,89.84375,381.34765625,90.8203125,-21.484375
1656238967525.5,134.27734375,-190.4296875,206.0546875,89.35546875,59.08203125
1656238967529.4062,135.25390625,-57.12890625,265.625,87.40234375,14.16015625
1656238967533.3125,117.67578125,194.82421875,497.0703125,86.42578125,-55.17578125
1656238967537.2188,82.51953125,108.3984375,506.34765625,55.6640625,-42.48046875
1656238967541.125,68.84765625,-116.2109375,350.09765625,35.64453125,49.8046875
1656238967545.0312,86.9140625,-182.12890625,266.11328125,42.48046875,97.16796875
1656238967548.9375,99.12109375,-123.53515625,258.30078125,57.6171875,2.44140625
1656238967552.8438,107.421875,90.8203125,417.96875,91.30859375,-43.45703125
1656238967556.75,113.28125,-389.6484375,37.109375,111.81640625,171.38671875
1656238967560.6562,117.1875,-378.41796875,-96.19140625,86.9140625,200.1953125
1656238967564.5625,137.20703125,402.83203125,482.421875,69.82421875,-19.04296875
1656238967568.4688,139.6484375,292.96875,485.83984375,71.2890625,-31.25
1656238967572.375,130.859375,-1.46484375,243.65234375,70.3125,-6.34765625
1656238967576.2812,129.39453125,62.5,244.140625,87.890625,-49.8046875
1656238967580.1875,145.01953125,88.37890625,242.1875,86.42578125,-19.04296875
1656238967584.0938,135.7421875,70.80078125,198.73046875,77.1484375,13.671875
1656238967588,112.3046875,-120.1171875,-28.3203125,69.3359375,61.5234375
1656238967591.9062,97.16796875,-55.17578125,-45.8984375,49.31640625,49.8046875
1656238967595.8125,88.37890625,87.890625,41.9921875,46.875,47.8515625
1656238967599.7188,99.609375,30.76171875,-25.390625,44.921875,67.87109375
1656238967603.625,104.98046875,-358.88671875,-418.9453125,45.41015625,249.51171875
1656238967607.5312,93.26171875,210.44921875,-66.89453125,41.015625,93.75
1656238967611.4375,77.63671875,588.8671875,273.4375,43.9453125,-103.515625
1656238967615.3438,77.1484375,177.24609375,3.90625,50.78125,-19.04296875
1656238967619.25,70.80078125,226.07421875,-12.20703125,43.9453125,-26.3671875
1656238967623.1562,78.61328125,459.9609375,150.390625,33.69140625,-67.3828125
1656238967627.0625,78.61328125,395.5078125,139.16015625,24.90234375,-37.109375
1656238967630.9688,65.4296875,117.67578125,-72.265625,24.4140625,39.55078125
1656238967634.875,67.3828125,117.67578125,-91.796875,28.3203125,55.17578125
1656238967638.7812,74.70703125,112.79296875,-119.62890625,25.87890625,37.109375
1656238967642.6875,79.1015625,15.625,-215.33203125,30.2734375,49.8046875
1656238967646.5938,92.7734375,-239.2578125,-485.3515625,58.59375,231.4453125
1656238967650.5,98.6328125,1.953125,-401.85546875,62.98828125,211.9140625
1656238967654.4062,104.4921875,457.51953125,-29.296875,57.12890625,-6.8359375
1656238967658.3125,107.421875,352.05078125,-54.19921875,70.80078125,-36.62109375
1656238967662.2188,120.1171875,-250.9765625,-508.7890625,99.12109375,193.359375
1656238967666.125,145.5078125,-66.40625,-487.79296875,107.421875,158.69140625
1656238967670.0312,132.32421875,529.78515625,-43.9453125,95.703125,-105.95703125
1656238967673.9375,124.0234375,317.3828125,-118.1640625,106.93359375,-49.31640625
1656238967677.8438,163.57421875,231.93359375,-174.31640625,122.55859375,26.85546875
1656238967681.75,186.03515625,397.94921875,-48.33984375,126.46484375,-26.85546875
1656238967685.6562,191.40625,321.77734375,-93.75,129.8828125,2.44140625
1656238967689.5625,198.2421875,66.40625,-289.55078125,148.4375,71.2890625
1656238967693.4688,180.6640625,-259.27734375,-606.93359375,153.3203125,205.56640625
1656238967697.375,150.390625,127.44140625,-350.09765625,126.953125,133.30078125
1656238967701.2812,115.72265625,627.44140625,76.66015625,62.01171875,-75.1953125
1656238967705.1875,74.70703125,331.54296875,-86.9140625,13.18359375,-19.04296875
1656238967709.0938,48.33984375,-108.88671875,-450.68359375,21.97265625,179.6875
1656238967713,42.48046875,354.00390625,-115.234375,19.53125,-7.8125
1656238967716.9062,49.31640625,550.78125,118.1640625,14.6484375,-80.56640625
1656238967720.8125,65.91796875,254.39453125,-51.7578125,20.01953125,58.59375
1656238967724.7188,77.1484375,324.70703125,30.2734375,42.48046875,6.8359375
1656238967728.625,74.70703125,382.32421875,122.0703125,64.453125,-50.29296875
1656238967732.5312,61.5234375,114.2578125,-26.85546875,48.33984375,89.84375
1656238967736.4375,62.01171875,-350.09765625,-376.953125,51.26953125,328.125
1656238967740.3438,83.49609375,-321.2890625,-470.703125,70.3125,296.38671875
1656238967744.25,109.375,446.2890625,119.62890625,81.54296875,-19.53125
1656238967748.1562,116.69921875,470.21484375,250,92.7734375,-54.19921875
1656238967752.0625,108.3984375,38.0859375,-37.109375,93.26171875,32.71484375
1656238967755.9688,81.0546875,-18.5546875,-67.3828125,85.44921875,22.4609375
1656238967759.875,69.3359375,257.8125,147.94921875,66.89453125,-73.73046875
1656238967763.7812,106.4453125,170.41015625,141.11328125,68.84765625,-71.2890625
1656238967767.6875,94.7265625,-246.58203125,-170.8984375,82.51953125,104.4921875
1656238967771.5938,83.984375,20.01953125,12.20703125,83.49609375,34.66796875
1656238967775.5,91.796875,232.91015625,244.140625,78.61328125,-80.078125
1656238967779.4062,79.1015625,-161.1328125,-7.32421875,45.8984375,58.10546875
1656238967783.3125,65.91796875,-625,-418.45703125,29.296875,279.296875
1656238967787.2188,68.84765625,-73.73046875,-36.62109375,29.296875,66.89453125
1656238967791.125,76.66015625,231.93359375,290.52734375,39.0625,-115.234375
1656238967795.0312,103.02734375,-57.12890625,181.640625,65.4296875,27.34375
1656238967798.9375,129.39453125,-70.3125,198.2421875,76.171875,59.5703125
1656238967802.8438,158.69140625,73.73046875,316.40625,88.8671875,-56.15234375
1656238967806.75,159.66796875,73.73046875,374.51171875,104.00390625,-61.5234375
1656238967810.6562,129.39453125,-280.2734375,157.71484375,101.5625,35.64453125
1656238967814.5625,120.1171875,-428.22265625,4.8828125,89.35546875,135.25390625
1656238967818.4688,123.53515625,-137.20703125,190.91796875,84.47265625,29.296875
1656238967822.375,139.16015625,19.53125,366.2109375,84.9609375,-114.74609375
1656238967826.2812,142.08984375,-500.9765625,6.34765625,91.796875,156.73828125
1656238967830.1875,113.28125,-816.89453125,-379.39453125,100.09765625,426.26953125
1656238967834.0938,114.2578125,-75.1953125,122.0703125,97.16796875,82.03125
1656238967838,136.71875,107.91015625,338.37890625,102.05078125,-66.40625
1656238967841.9062,138.671875,-367.67578125,0.9765625,103.02734375,125.48828125
1656238967845.8125,150.87890625,-99.12109375,165.52734375,114.2578125,30.76171875
1656238967849.7188,153.80859375,180.17578125,402.34375,131.8359375,-75.1953125
1656238967853.625,135.7421875,-39.55078125,283.203125,126.953125,-2.44140625
1656238967857.5312,150.390625,-208.49609375,153.3203125,115.72265625,8.30078125
1656238967861.4375,168.9453125,-11.23046875,292.96875,107.421875,-35.64453125
1656238967865.3438,165.52734375,108.88671875,396.484375,104.98046875,-79.1015625
1656238967869.25,154.78515625,-120.1171875,213.37890625,111.328125,-64.94140625
1656238967873.1562,149.90234375,-333.984375,9.27734375,112.79296875,42.96875
1656238967877.0625,146.484375,-280.76171875,19.04296875,102.05078125,102.05078125
1656238967880.9688,143.06640625,-112.3046875,120.60546875,98.14453125,87.40234375
1656238967884.875,130.859375,-95.21484375,136.71875,96.19140625,85.9375
1656238967888.7812,122.0703125,-676.26953125,-358.88671875,95.21484375,347.16796875
1656238967892.6875,97.65625,-251.953125,-136.71875,76.66015625,218.26171875
1656238967896.5938,85.9375,366.2109375,415.0390625,56.640625,-68.84765625
1656238967900.5,111.328125,104.4921875,283.69140625,62.5,-18.5546875
1656238967904.4062,120.1171875,142.578125,312.5,65.4296875,17.08984375
1656238967908.3125,112.3046875,233.88671875,420.8984375,66.40625,-53.7109375
1656238967912.2188,89.35546875,138.18359375,417.48046875,61.03515625,-26.3671875
1656238967916.125,101.07421875,-145.01953125,244.140625,80.078125,56.640625
1656238967920.0312,187.01171875,-232.91015625,119.140625,147.4609375,62.5
1656238967923.9375,218.75,-126.46484375,144.04296875,167.48046875,42.48046875
1656238967927.8438,218.26171875,92.28515625,303.22265625,162.59765625,7.32421875
1656238967931.75,214.35546875,-400.390625,-71.2890625,173.828125,264.6484375
1656238967935.6562,172.8515625,-745.1171875,-448.2421875,149.90234375,375.9765625
1656238967939.5625,154.78515625,139.16015625,185.546875,122.55859375,25.390625
1656238967943.4688,194.82421875,208.984375,333.49609375,149.4140625,-11.71875
1656238967947.375,226.07421875,-7.8125,210.9375,160.64453125,50.78125
1656238967951.2812,208.49609375,201.66015625,403.3203125,145.99609375,-51.7578125
1656238967955.1875,194.82421875,182.6171875,452.1484375,145.01953125,-87.890625
1656238967959.0938,198.73046875,31.25,375.48828125,142.08984375,-33.203125
1656238967963,187.5,-83.0078125,279.296875,129.39453125,-26.85546875
1656238967966.9062,173.33984375,-198.2421875,195.80078125,118.1640625,29.296875
1656238967970.8125,172.8515625,-169.921875,225.09765625,125.48828125,58.59375
1656238967974.7188,175.29296875,-266.11328125,175.29296875,136.23046875,32.2265625
1656238967978.625,179.6875,-718.75,-204.58984375,134.27734375,264.16015625
1656238967982.5312,201.66015625,-131.8359375,166.015625,135.7421875,118.65234375
1656238967986.4375,211.9140625,304.19921875,590.8203125,148.92578125,-60.05859375
1656238967990.3438,195.80078125,-166.9921875,314.94140625,156.25,106.4453125
1656238967994.25,189.453125,-226.07421875,238.76953125,149.90234375,121.09375
1656238967998.1562,193.84765625,61.03515625,482.421875,128.90625,-52.734375
1656238968002.0625,202.1484375,40.0390625,532.71484375,119.140625,-74.21875
1656238968005.9688,199.70703125,-231.4453125,373.53515625,121.09375,-1.953125
1656238968009.875,174.8046875,-190.4296875,392.08984375,121.58203125,-40.0390625
1656238968013.7812,158.203125,-261.23046875,352.5390625,116.69921875,16.11328125
1656238968017.6875,151.3671875,-324.21875,330.078125,105.95703125,96.19140625
1656238968021.5938,163.57421875,-556.15234375,123.046875,98.6328125,217.7734375
1656238968025.5,161.62109375,-552.24609375,6.8359375,92.28515625,218.26171875
1656238968029.4062,136.23046875,99.12109375,482.91015625,78.61328125,-76.66015625
1656238968033.3125,125,51.7578125,535.15625,70.3125,-98.14453125
1656238968037.2188,122.0703125,-205.078125,360.3515625,76.171875,27.34375
1656238968041.125,128.90625,-1.46484375,512.20703125,74.70703125,-15.13671875
1656238968045.0312,125.48828125,56.640625,605.46875,65.91796875,-86.9140625
1656238968048.9375,103.515625,-311.03515625,355.46875,64.94140625,13.18359375
1656238968052.8438,95.21484375,-529.78515625,122.0703125,80.56640625,128.41796875
1656238968056.75,112.3046875,-151.3671875,388.671875,81.0546875,5.37109375
1656238968060.6562,112.79296875,-128.41796875,436.5234375,45.8984375,-32.71484375
1656238968064.5625,63.96484375,-408.203125,235.3515625,-1.46484375,86.42578125
1656238968068.4688,16.6015625,-455.078125,139.6484375,-19.53125,125
1656238968072.375,-13.18359375,-75.68359375,383.7890625,-14.6484375,-20.99609375
1656238968076.2812,3.41796875,89.35546875,551.26953125,-8.30078125,-125
1656238968080.1875,30.76171875,-230.46875,326.171875,0.9765625,-2.44140625
1656238968084.0938,26.3671875,-466.30859375,74.70703125,3.41796875,112.3046875
1656238968088,43.9453125,1.46484375,388.671875,5.37109375,-36.62109375
1656238968091.9062,72.75390625,80.078125,513.18359375,32.2265625,-84.47265625
1656238968095.8125,35.64453125,-241.69921875,290.0390625,10.25390625,26.85546875
1656238968099.7188,-23.4375,-161.1328125,309.08203125,-60.05859375,-13.18359375
1656238968103.625,-41.015625,-31.25,412.59765625,-93.75,-67.87109375
1656238968107.5312,-49.8046875,-172.8515625,321.77734375,-91.796875,23.92578125
1656238968111.4375,-44.921875,-665.0390625,-127.44140625,-73.73046875,286.62109375
1656238968115.3438,-27.83203125,-796.38671875,-391.6015625,-60.05859375,401.85546875
1656238968119.25,0.48828125,96.6796875,273.4375,-51.7578125,70.80078125
1656238968123.1562,18.06640625,266.11328125,494.62890625,-27.34375,-15.13671875
1656238968127.0625,32.2265625,-117.1875,209.9609375,-9.27734375,88.37890625
1656238968130.9688,56.15234375,43.45703125,312.01171875,14.6484375,-23.4375
1656238968134.875,48.828125,170.41015625,401.85546875,29.296875,-92.7734375
1656238968138.7812,50.78125,2.44140625,282.71484375,17.578125,-44.921875
1656238968142.6875,107.421875,-87.890625,203.125,44.921875,32.2265625
1656238968146.5938,135.7421875,132.32421875,331.0546875,87.40234375,13.18359375
1656238968150.5,135.25390625,206.54296875,393.5546875,101.07421875,-57.12890625
1656238968154.4062,154.78515625,-187.98828125,82.51953125,134.765625,68.359375
1656238968158.3125,162.109375,-562.98828125,-290.0390625,142.08984375,328.125
1656238968162.2188,162.109375,-139.16015625,-32.71484375,110.3515625,189.94140625
1656238968166.125,150.390625,238.28125,249.51171875,91.30859375,-3.41796875
1656238968170.0312,138.18359375,31.73828125,108.3984375,102.5390625,22.94921875
1656238968173.9375,133.30078125,-393.5546875,-288.57421875,128.41796875,170.8984375
1656238968177.8438,152.83203125,147.94921875,71.77734375,126.46484375,0.48828125
1656238968181.75,191.89453125,463.37890625,391.6015625,131.8359375,-80.078125
1656238968185.6562,192.3828125,214.35546875,228.515625,141.11328125,35.64453125
1656238968189.5625,171.875,234.375,239.74609375,138.671875,35.15625
1656238968193.4688,178.22265625,322.265625,332.51953125,145.5078125,-38.57421875
1656238968197.375,197.265625,221.6796875,258.30078125,146.97265625,-58.59375
1656238968201.2812,237.3046875,-139.6484375,-25.390625,174.31640625,98.6328125
1656238968205.1875,258.30078125,-106.4453125,-59.5703125,198.2421875,163.0859375
1656238968209.0938,245.60546875,273.92578125,196.77734375,190.4296875,15.625
1656238968213,239.74609375,295.41015625,281.73828125,186.03515625,-55.17578125
1656238968216.9062,253.90625,-205.078125,-90.33203125,204.58984375,170.8984375
1656238968220.8125,253.90625,-123.046875,-132.32421875,201.66015625,135.25390625
1656238968224.7188,247.55859375,307.6171875,189.94140625,191.89453125,-65.4296875
1656238968228.625,241.69921875,250.9765625,214.84375,192.87109375,-62.01171875
1656238968232.5312,210.9375,-263.18359375,-173.33984375,183.10546875,135.25390625
1656238968236.4375,171.38671875,51.7578125,26.85546875,150.87890625,72.265625
1656238968240.3438,155.2734375,434.5703125,361.328125,114.74609375,-85.44921875
1656238968244.25,152.83203125,248.53515625,315.4296875,106.4453125,-28.3203125
1656238968248.1562,120.1171875,-7.8125,155.2734375,94.23828125,125
1656238968252.0625,89.84375,-87.40234375,41.9921875,80.078125,97.16796875
1656238968255.9688,114.2578125,194.3359375,243.1640625,74.70703125,-94.7265625
1656238968259.875,136.23046875,67.87109375,195.3125,62.01171875,-18.5546875
1656238968263.7812,125.9765625,-469.23828125,-274.4140625,59.08203125,270.01953125
1656238968267.6875,102.5390625,102.05078125,82.51953125,48.828125,76.66015625
1656238968271.5938,79.1015625,449.21875,431.15234375,45.8984375,-81.54296875
1656238968275.5,53.7109375,75.68359375,214.35546875,17.578125,-24.90234375
1656238968279.4062,44.43359375,4.39453125,145.5078125,-22.4609375,-42.48046875
1656238968283.3125,22.4609375,63.4765625,189.94140625,-45.41015625,-9.27734375
1656238968287.2188,-1.46484375,231.93359375,340.33203125,-57.12890625,-80.078125
1656238968291.125,-27.83203125,-83.0078125,134.27734375,-60.546875,7.8125
1656238968295.0312,-49.31640625,-323.73046875,-81.54296875,-71.77734375,114.74609375
1656238968298.9375,-41.015625,-42.48046875,90.8203125,-83.984375,1.46484375
1656238968302.8438,-33.69140625,246.58203125,325.68359375,-95.703125,-48.828125
1656238968306.75,-47.8515625,-130.859375,63.96484375,-102.5390625,105.46875
1656238968310.6562,-71.77734375,-132.32421875,17.08984375,-98.6328125,80.078125
1656238968314.5625,-75.68359375,342.28515625,396.484375,-83.0078125,-116.2109375
1656238968318.4688,-38.57421875,163.0859375,344.7265625,-71.77734375,-32.71484375
1656238968322.375,-30.2734375,-224.12109375,58.10546875,-63.96484375,133.30078125
1656238968326.2812,-42.96875,89.35546875,269.04296875,-54.6875,20.5078125
1656238968330.1875,-42.48046875,293.9453125,450.1953125,-46.38671875,-87.890625
1656238968334.0938,-37.59765625,47.8515625,303.22265625,-41.9921875,-16.6015625
1656238968338,-4.8828125,-120.1171875,163.0859375,-37.109375,23.4375
1656238968341.9062,30.76171875,-91.796875,147.4609375,-19.53125,60.546875
1656238968345.8125,36.62109375,29.78515625,239.2578125,-7.32421875,117.1875
1656238968349.7188,25.390625,-81.0546875,164.0625,-8.30078125,152.34375
1656238968353.625,12.6953125,-645.5078125,-341.30859375,-9.27734375,374.0234375
1656238968357.5312,26.85546875,-204.58984375,-144.04296875,-16.6015625,221.6796875
1656238968361.4375,54.6875,475.09765625,408.69140625,-31.73828125,-82.03125
1656238968365.3438,52.734375,240.234375,322.265625,-21.97265625,7.32421875
1656238968369.25,22.4609375,228.02734375,314.94140625,-12.20703125,13.18359375
1656238968373.1562,11.23046875,311.5234375,416.9921875,-29.78515625,-75.1953125
1656238968377.0625,7.8125,182.12890625,346.6796875,-47.36328125,-59.5703125
1656238968380.9688,7.32421875,21.97265625,214.35546875,-44.43359375,3.90625
1656238968384.875,8.30078125,130.37109375,300.29296875,-43.9453125,6.8359375
1656238968388.7812,-20.99609375,54.19921875,268.06640625,-50.78125,68.359375
1656238968392.6875,-28.3203125,-69.82421875,170.41015625,-46.875,59.08203125
1656238968396.5938,-3.41796875,-412.109375,-135.7421875,-27.34375,215.8203125
1656238968400.5,21.97265625,-473.14453125,-351.07421875,-17.08984375,333.984375
1656238968404.4062,18.06640625,411.62109375,260.25390625,-32.2265625,-16.11328125
1656238968408.3125,-3.90625,477.5390625,414.0625,-37.59765625,-108.3984375
1656238968412.2188,-21.484375,41.015625,119.62890625,-41.50390625,40.52734375
1656238968416.125,-20.01953125,204.58984375,238.76953125,-33.203125,-13.18359375
1656238968420.0312,-5.859375,392.08984375,404.296875,-28.80859375,-90.33203125
1656238968423.9375,11.23046875,241.2109375,338.8671875,-29.296875,-44.43359375
1656238968427.8438,12.20703125,109.375,224.12109375,-22.94921875,-2.9296875
1656238968431.75,8.30078125,144.04296875,241.2109375,-17.578125,-37.59765625
1656238968435.6562,4.8828125,-3.90625,156.73828125,-30.2734375,28.80859375
1656238968439.5625,16.6015625,-155.2734375,29.78515625,-41.50390625,119.140625
1656238968443.4688,30.76171875,-492.67578125,-325.68359375,-34.66796875,273.4375
1656238968447.375,22.4609375,41.9921875,-5.859375,-40.52734375,91.796875
1656238968451.2812,5.37109375,464.35546875,403.3203125,-41.015625,-108.3984375
1656238968455.1875,3.90625,57.12890625,187.01171875,-24.90234375,-22.94921875
1656238968459.0938,9.27734375,-18.06640625,105.95703125,-45.8984375,49.31640625
1656238968463,-20.01953125,296.38671875,339.84375,-77.63671875,-31.25
1656238968466.9062,-50.78125,318.84765625,420.41015625,-92.7734375,-98.14453125
1656238968470.8125,-72.265625,-118.65234375,109.375,-103.02734375,-14.6484375
1656238968474.7188,-94.23828125,-126.46484375,49.31640625,-113.28125,67.87109375
1656238968478.625,-81.54296875,214.35546875,314.94140625,-117.67578125,-27.83203125
1656238968482.5312,-62.98828125,113.76953125,305.17578125,-112.3046875,-9.765625
1656238968486.4375,-52.24609375,-347.16796875,-64.453125,-89.84375,288.57421875
1656238968490.3438,-116.2109375,-390.13671875,-217.7734375,-128.41796875,277.83203125
1656238968494.25,-229.4921875,237.3046875,243.1640625,-238.28125,-54.19921875
1656238968498.1562,-244.140625,290.0390625,375.48828125,-276.3671875,-80.078125
1656238968502.0625,-229.4921875,65.4296875,250,-272.4609375,-4.8828125
1656238968505.9688,-213.8671875,208.984375,351.07421875,-247.55859375,-42.96875
1656238968509.875,-193.84765625,262.6953125,396.97265625,-207.51953125,-112.79296875
1656238968513.7812,-175.78125,-11.71875,218.75,-198.73046875,-48.828125
1656238968517.6875,-166.9921875,-218.75,40.0390625,-196.77734375,71.2890625
1656238968521.5938,-142.08984375,108.88671875,243.1640625,-179.6875,-21.484375
1656238968525.5,-117.67578125,288.57421875,403.80859375,-176.26953125,-83.49609375
1656238968529.4062,-134.27734375,-89.84375,158.69140625,-165.52734375,85.44921875
1656238968533.3125,-142.08984375,-731.93359375,-386.71875,-139.16015625,377.9296875
1656238968537.2188,-115.72265625,-220.703125,-148.92578125,-137.20703125,160.15625
1656238968541.125,-102.05078125,445.3125,390.625,-135.25390625,-138.18359375
1656238968545.0312,-100.09765625,252.9296875,340.33203125,-128.90625,-60.05859375
1656238968548.9375,-101.5625,171.38671875,270.01953125,-134.27734375,-26.85546875
1656238968552.8438,-114.2578125,228.02734375,319.82421875,-129.8828125,-77.1484375
1656238968556.75,-116.69921875,189.453125,310.05859375,-122.0703125,-124.51171875
1656238968560.6562,-103.515625,51.26953125,203.125,-126.46484375,-53.7109375
1656238968564.5625,-100.09765625,153.3203125,258.30078125,-135.25390625,3.90625
1656238968568.4688,-104.4921875,296.875,365.234375,-121.09375,-73.2421875
1656238968572.375,-97.65625,173.33984375,279.296875,-96.19140625,-43.9453125
1656238968576.2812,-88.8671875,-221.6796875,-19.04296875,-98.14453125,208.0078125
1656238968580.1875,-76.66015625,-177.734375,-60.546875,-110.3515625,231.4453125
1656238968584.0938,-78.61328125,131.34765625,136.71875,-113.76953125,76.171875
1656238968588,-89.35546875,135.7421875,147.94921875,-93.75,6.34765625
1656238968591.9062,-83.49609375,-305.6640625,-222.65625,-74.21875,144.04296875
1656238968595.8125,-86.42578125,-204.1015625,-240.234375,-86.9140625,162.109375
1656238968599.7188,-63.4765625,500.9765625,321.77734375,-90.8203125,-69.3359375
1656238968603.625,-27.83203125,432.12890625,372.55859375,-78.61328125,-81.54296875
1656238968607.5312,-42.48046875,169.43359375,171.38671875,-85.9375,-25.390625
1656238968611.4375,-50.29296875,237.79296875,199.21875,-74.21875,-69.82421875
1656238968615.3438,-27.83203125,306.640625,287.59765625,-56.15234375,-111.328125
1656238968619.25,-20.5078125,192.3828125,229.98046875,-64.453125,-56.640625
1656238968623.1562,7.8125,-14.6484375,82.51953125,-46.875,106.4453125
1656238968627.0625,23.92578125,-3.90625,69.82421875,-26.85546875,51.7578125
1656238968630.9688,-3.90625,147.94921875,149.90234375,-45.41015625,-73.73046875
1656238968634.875,-19.53125,7.32421875,83.49609375,-53.7109375,112.79296875
1656238968638.7812,-22.94921875,-572.75390625,-393.5546875,-60.546875,376.46484375
1656238968642.6875,-18.5546875,-62.98828125,-140.13671875,-78.61328125,199.21875
1656238968646.5938,-23.92578125,555.17578125,362.3046875,-77.63671875,-38.0859375
1656238968650.5,-36.62109375,165.0390625,159.66796875,-68.359375,-16.11328125
1656238968654.4062,-55.17578125,120.1171875,134.765625,-70.3125,-28.80859375
1656238968658.3125,-53.7109375,326.171875,329.58984375,-90.8203125,-26.3671875
1656238968662.2188,-37.109375,297.8515625,355.95703125,-87.40234375,-10.7421875
1656238968666.125,-44.921875,22.94921875,156.73828125,-77.1484375,72.265625
1656238968670.0312,-41.50390625,-177.734375,-10.7421875,-59.08203125,134.765625
1656238968673.9375,-31.25,-123.046875,-3.90625,-43.9453125,104.4921875
1656238968677.8438,-32.2265625,128.90625,153.3203125,-59.08203125,14.6484375
1656238968681.75,-23.4375,-229.98046875,-113.76953125,-54.19921875,186.03515625
1656238968685.6562,-19.04296875,-299.8046875,-250.9765625,-50.78125,237.3046875
1656238968689.5625,-34.66796875,245.1171875,135.7421875,-67.3828125,-41.015625
1656238968693.4688,-52.24609375,22.4609375,24.4140625,-74.21875,34.1796875
1656238968697.375,-71.2890625,-259.27734375,-202.1484375,-90.33203125,166.50390625
1656238968701.2812,-94.23828125,164.0625,120.60546875,-132.32421875,11.71875
1656238968705.1875,-89.84375,364.2578125,336.42578125,-137.20703125,-108.88671875
1656238968709.0938,-85.9375,83.0078125,173.33984375,-130.37109375,-60.546875
1656238968713,-108.88671875,-58.59375,43.45703125,-144.53125,-20.5078125
1656238968716.9062,-124.0234375,-144.04296875,-24.4140625,-158.69140625,22.4609375
1656238968720.8125,-114.74609375,-79.1015625,44.921875,-167.96875,18.5546875
1656238968724.7188,-98.6328125,-97.65625,33.203125,-155.76171875,20.01953125
1656238968728.625,-92.28515625,-598.6328125,-384.765625,-131.8359375,289.0625
1656238968732.5312,-96.19140625,-62.01171875,-22.4609375,-122.0703125,158.203125
1656238968736.4375,-98.14453125,397.94921875,403.80859375,-116.69921875,-49.31640625
1656238968740.3438,-97.16796875,78.125,233.3984375,-133.30078125,30.2734375
1656238968744.25,-101.5625,86.42578125,231.93359375,-146.97265625,-5.37109375
1656238968748.1562,-111.81640625,68.84765625,242.67578125,-132.32421875,-67.87109375
1656238968752.0625,-120.1171875,-118.1640625,121.09375,-121.58203125,34.1796875
1656238968755.9688,-121.09375,-249.0234375,-0.9765625,-121.58203125,129.8828125
1656238968759.875,-110.3515625,-69.82421875,119.140625,-126.953125,116.2109375
1656238968763.7812,-101.5625,42.48046875,232.421875,-126.953125,123.53515625
1656238968767.6875,-104.98046875,-75.68359375,148.4375,-119.140625,68.359375
1656238968771.5938,-103.515625,-383.7890625,-96.19140625,-96.6796875,197.75390625
1656238968775.5,-100.5859375,-404.296875,-167.48046875,-96.19140625,243.65234375
1656238968779.4062,-95.21484375,250,315.91796875,-112.3046875,-75.68359375
1656238968783.3125,-62.01171875,248.046875,403.80859375,-98.14453125,-103.515625
1656238968787.2188,-54.6875,-74.70703125,200.68359375,-102.05078125,36.62109375
1656238968791.125,-78.61328125,57.12890625,303.22265625,-115.234375,-36.1328125
1656238968795.0312,-89.35546875,134.765625,418.9453125,-123.53515625,-114.2578125
1656238968798.9375,-75.68359375,1.953125,335.9375,-122.55859375,-37.59765625
1656238968802.8438,-66.40625,-57.6171875,257.8125,-119.62890625,26.85546875
1656238968806.75,-39.0625,-21.97265625,291.015625,-89.84375,20.01953125
1656238968810.6562,-0.9765625,-150.87890625,204.58984375,-34.1796875,41.50390625
1656238968814.5625,18.06640625,-263.18359375,109.375,-3.90625,171.38671875
1656238968818.4688,27.34375,-709.47265625,-304.6875,-4.8828125,481.93359375
1656238968822.375,38.57421875,-265.625,-95.21484375,-9.765625,276.85546875
1656238968826.2812,54.6875,441.89453125,482.421875,9.765625,-54.6875
1656238968830.1875,54.6875,215.8203125,417.96875,21.97265625,-3.41796875
1656238968834.0938,27.34375,145.99609375,366.2109375,15.13671875,22.4609375
1656238968838,15.13671875,288.57421875,487.3046875,13.18359375,-54.6875
1656238968841.9062,-0.48828125,217.28515625,472.65625,-15.13671875,-116.2109375
1656238968845.8125,-11.71875,-56.640625,269.04296875,-24.4140625,-36.62109375
1656238968849.7188,-88.37890625,-4.8828125,311.5234375,-87.890625,-24.90234375
1656238968853.625,-199.21875,71.2890625,412.59765625,-195.80078125,-82.03125
1656238968857.5312,-203.61328125,-250.48828125,216.796875,-211.9140625,36.62109375
1656238968861.4375,-168.9453125,-366.2109375,124.51171875,-199.21875,120.60546875
1656238968865.3438,-138.671875,-151.85546875,259.27734375,-174.31640625,20.5078125
1656238968869.25,-125.9765625,-141.6015625,253.41796875,-153.3203125,-23.4375
1656238968873.1562,-129.39453125,-19.53125,368.65234375,-151.85546875,-52.24609375
1656238968877.0625,-111.81640625,-583.0078125,-39.55078125,-141.11328125,165.52734375
1656238968880.9688,-103.02734375,-814.94140625,-331.54296875,-140.13671875,358.3984375
1656238968884.875,-110.83984375,100.5859375,338.37890625,-139.6484375,34.66796875
1656238968888.7812,-108.88671875,181.15234375,505.37109375,-133.30078125,-49.8046875
1656238968892.6875,-135.25390625,-132.8125,312.5,-157.71484375,29.296875
1656238968896.5938,-142.08984375,-21.97265625,391.6015625,-170.8984375,-78.61328125
1656238968900.5,-127.44140625,116.69921875,544.43359375,-166.50390625,-91.796875
1656238968904.4062,-149.90234375,-222.65625,329.58984375,-193.359375,136.71875
1656238968908.3125,-185.546875,-708.984375,-91.30859375,-216.30859375,366.69921875
1656238968912.2188,-195.80078125,-274.90234375,194.82421875,-206.54296875,76.171875
1656238968916.125,-156.25,86.42578125,523.92578125,-185.05859375,-114.74609375
1656238968920.0312,-114.2578125,-154.296875,409.1796875,-150.87890625,10.7421875
1656238968923.9375,-97.65625,-326.171875,243.65234375,-141.6015625,81.54296875
1656238968927.8438,-71.2890625,-186.03515625,328.61328125,-119.140625,52.24609375
1656238968931.75,-52.734375,16.11328125,522.4609375,-63.96484375,-13.671875
1656238968935.6562,-34.1796875,-184.5703125,383.7890625,-47.8515625,21.97265625
1656238968939.5625,-6.8359375,-218.75,292.96875,-55.17578125,81.54296875
1656238968943.4688,10.7421875,133.30078125,575.68359375,-37.109375,-19.53125
1656238968947.375,-9.765625,132.8125,643.5546875,-28.3203125,-35.15625
1656238968951.2812,-13.18359375,-278.3203125,369.62890625,-16.11328125,174.31640625
1656238968955.1875,17.08984375,-326.66015625,279.78515625,2.44140625,226.5625
1656238968959.0938,35.64453125,131.8359375,577.63671875,3.41796875,90.33203125
1656238968963,38.57421875,230.95703125,725.09765625,5.37109375,39.0625
1656238968966.9062,46.875,-366.69921875,312.01171875,14.16015625,188.4765625
1656238968970.8125,50.78125,-307.12890625,256.34765625,20.5078125,154.296875
1656238968974.7188,54.19921875,199.21875,632.32421875,19.04296875,-92.28515625
1656238968978.625,70.80078125,118.65234375,645.5078125,31.73828125,-68.359375
1656238968982.5312,98.6328125,-74.70703125,498.53515625,47.8515625,43.45703125
1656238968986.4375,110.3515625,-86.9140625,465.33203125,57.6171875,108.3984375
1656238968990.3438,111.328125,151.3671875,636.71875,72.75390625,-2.44140625
1656238968994.25,104.4921875,12.20703125,535.64453125,72.75390625,12.6953125
1656238968998.1562,109.86328125,-546.875,107.91015625,68.84765625,330.078125
1656238969002.0625,116.2109375,-285.15625,240.234375,69.82421875,226.5625
1656238969005.9688,116.69921875,184.5703125,575.68359375,79.1015625,-9.27734375
1656238969009.875,140.13671875,26.3671875,473.14453125,120.1171875,-0.48828125
1656238969013.7812,162.59765625,-435.05859375,75.1953125,151.3671875,225.5859375
1656238969017.6875,196.2890625,121.58203125,490.72265625,159.66796875,89.35546875
1656238969021.5938,215.33203125,453.125,812.98828125,164.55078125,-43.45703125
1656238969025.5,202.63671875,158.203125,629.39453125,173.33984375,44.921875
1656238969029.4062,188.4765625,112.3046875,575.1953125,179.19921875,-9.27734375
1656238969033.3125,194.3359375,207.51953125,648.4375,180.6640625,-87.40234375
1656238969037.2188,203.61328125,184.08203125,644.53125,175.78125,-59.08203125
1656238969041.125,217.7734375,-18.5546875,498.53515625,174.8046875,38.57421875
1656238969045.0312,225.09765625,-72.75390625,441.40625,188.4765625,79.58984375
1656238969048.9375,230.46875,-48.33984375,428.7109375,209.47265625,97.65625
1656238969052.8438,249.0234375,33.69140625,465.8203125,217.7734375,63.96484375
1656238969056.75,251.46484375,-267.08984375,232.91015625,215.8203125,225.09765625
1656238969060.6562,256.34765625,-498.53515625,-35.64453125,215.8203125,408.203125
1656238969064.5625,278.80859375,397.94921875,623.046875,225.09765625,84.9609375
1656238969068.4688,276.3671875,552.24609375,887.6953125,234.375,-36.1328125
1656238969072.375,251.953125,159.1796875,657.71484375,232.91015625,62.01171875
1656238969076.2812,241.2109375,298.33984375,759.27734375,230.95703125,-13.671875
1656238969080.1875,236.328125,364.74609375,843.26171875,208.984375,-52.734375
1656238969084.0938,248.046875,212.40234375,780.76171875,196.2890625,-41.9921875
1656238969088,233.3984375,54.19921875,644.53125,204.1015625,-15.13671875
1656238969091.9062,203.125,-40.52734375,533.203125,192.3828125,63.96484375
1656238969095.8125,178.7109375,-29.296875,533.69140625,158.203125,73.2421875
1656238969099.7188,174.8046875,-38.57421875,514.6484375,136.71875,87.890625
1656238969103.625,170.8984375,-527.34375,45.8984375,125,390.625
1656238969107.5312,133.30078125,-107.421875,236.328125,97.16796875,247.0703125
1656238969111.4375,95.703125,488.76953125,726.07421875,65.4296875,-53.22265625
1656238969115.3438,83.984375,199.21875,581.54296875,51.26953125,9.765625
1656238969119.25,80.078125,131.34765625,497.55859375,33.69140625,1.953125
1656238969123.1562,61.5234375,317.3828125,618.65234375,22.4609375,-67.87109375
1656238969127.0625,56.15234375,221.6796875,527.83203125,28.3203125,-62.01171875
1656238969130.9688,48.828125,-72.75390625,242.67578125,35.64453125,11.71875
1656238969134.875,43.45703125,-42.48046875,187.98828125,34.1796875,19.04296875
1656238969138.7812,44.921875,-87.890625,64.453125,10.25390625,54.6875
1656238969142.6875,33.69140625,-75.68359375,-2.9296875,-12.20703125,33.203125
1656238969146.5938,19.53125,-348.6328125,-319.82421875,-3.41796875,159.1796875
1656238969150.5,5.859375,-395.99609375,-525.87890625,6.34765625,265.13671875
1656238969154.4062,20.5078125,260.7421875,-100.5859375,13.18359375,-20.01953125
1656238969158.3125,29.78515625,176.7578125,-158.203125,4.8828125,-62.5
1656238969162.2188,31.25,-125.9765625,-437.5,0.48828125,83.984375
1656238969166.125,23.92578125,145.99609375,-295.41015625,-8.30078125,-0.48828125
1656238969170.0312,-7.32421875,223.6328125,-267.578125,-23.92578125,-126.953125
1656238969173.9375,2.44140625,-60.05859375,-526.85546875,-21.97265625,-92.7734375
1656238969177.8438,34.66796875,-193.84765625,-719.23828125,-23.4375,17.08984375
1656238969181.75,54.19921875,76.66015625,-573.2421875,-2.9296875,-13.671875
1656238969185.6562,92.28515625,71.77734375,-655.76171875,62.98828125,22.94921875
1656238969189.5625,146.97265625,-198.73046875,-895.01953125,128.41796875,68.359375
1656238969193.4688,226.07421875,-589.84375,-987.3046875,224.609375,276.3671875
1656238969197.375,359.86328125,40.52734375,-806.640625,342.28515625,163.57421875
1656238969201.2812,465.8203125,632.32421875,-599.609375,420.41015625,-86.42578125
1656238969205.1875,522.94921875,367.67578125,-744.140625,494.62890625,-27.34375
1656238969209.0938,561.03515625,316.40625,-870.60546875,549.31640625,12.6953125
1656238969213,583.0078125,523.92578125,-729.98046875,568.359375,-42.48046875
1656238969216.9062,612.79296875,545.41015625,-718.26171875,591.796875,0.48828125
1656238969220.8125,631.34765625,288.0859375,-919.921875,585.44921875,118.65234375
1656238969224.7188,642.578125,429.19921875,-867.1875,584.47265625,85.44921875
1656238969228.625,686.5234375,714.84375,-703.61328125,649.4140625,-15.625
1656238969232.5312,744.62890625,530.76171875,-862.3046875,735.3515625,64.453125
1656238969236.4375,768.5546875,102.5390625,-1000,751.953125,291.50390625
1656238969240.3438,747.55859375,213.37890625,-927.734375,718.26171875,315.4296875
1656238969244.25,712.890625,937.98828125,-621.58203125,672.8515625,-18.5546875
1656238969248.1562,696.77734375,930.6640625,-562.98828125,661.1328125,-79.1015625
1656238969252.0625,650.87890625,608.3984375,-749.0234375,633.30078125,46.875
1656238969255.9688,627.44140625,716.30859375,-680.6640625,598.6328125,-14.6484375
1656238969259.875,647.4609375,911.1328125,-491.2109375,604.4921875,-65.91796875
1656238969263.7812,574.70703125,758.7890625,-538.0859375,542.96875,-49.31640625
1656238969267.6875,492.1875,531.73828125,-718.75,475.5859375,-20.01953125
1656238969271.5938,476.07421875,664.55078125,-623.53515625,452.63671875,-29.296875
1656238969275.5,460.9375,674.31640625,-575.68359375,422.8515625,-30.76171875
1656238969279.4062,431.15234375,405.76171875,-717.28515625,390.13671875,65.4296875
1656238969283.3125,406.25,-69.3359375,-948.73046875,366.2109375,374.51171875
1656238969287.2188,398.92578125,366.2109375,-745.1171875,351.07421875,243.65234375
1656238969291.125,376.953125,953.61328125,-348.6328125,346.6796875,-75.68359375
1656238969295.0312,354.98046875,660.15625,-439.453125,335.44921875,15.625
1656238969298.9375,359.375,556.15234375,-524.4140625,311.5234375,99.609375
1656238969302.8438,352.05078125,859.375,-257.8125,281.25,-52.734375
1656238969306.75,304.19921875,843.75,-158.203125,240.72265625,-102.5390625
1656238969310.6562,255.37109375,513.671875,-328.125,214.84375,-7.8125
1656238969314.5625,229.00390625,469.7265625,-349.12109375,202.63671875,5.37109375
1656238969318.4688,240.72265625,657.71484375,-187.01171875,188.4765625,-76.171875
1656238969322.375,249.0234375,647.4609375,-119.62890625,166.50390625,-86.9140625
1656238969326.2812,227.05078125,279.78515625,-359.86328125,169.43359375,102.05078125
1656238969330.1875,205.078125,216.30859375,-442.3828125,180.6640625,143.06640625
1656238969334.0938,194.82421875,466.30859375,-237.3046875,160.64453125,56.640625
1656238969338,185.546875,525.390625,-128.41796875,135.7421875,77.1484375
1656238969341.9062,162.59765625,82.51953125,-441.40625,112.79296875,214.84375
1656238969345.8125,122.0703125,5.859375,-575.1953125,95.703125,292.96875
1656238969349.7188,82.03125,730.95703125,20.5078125,74.70703125,19.04296875
1656238969353.625,47.8515625,678.7109375,135.7421875,36.62109375,-30.76171875
1656238969357.5312,36.1328125,438.4765625,-13.671875,-0.48828125,38.0859375
1656238969361.4375,25.390625,631.34765625,185.546875,-30.76171875,-23.92578125
1656238969365.3438,20.01953125,653.3203125,287.59765625,-23.4375,-75.1953125
1656238969369.25,27.83203125,400.87890625,140.13671875,-9.27734375,-41.9921875
1656238969373.1562,35.15625,119.62890625,-72.75390625,-8.7890625,83.984375
1656238969377.0625,47.8515625,171.875,-57.6171875,7.8125,108.88671875
1656238969380.9688,59.08203125,564.453125,269.53125,10.7421875,13.671875
1656238969384.875,83.984375,451.171875,270.01953125,21.97265625,38.0859375
1656238969388.7812,78.125,-235.3515625,-288.57421875,45.8984375,278.80859375
1656238969392.6875,62.5,181.640625,-28.80859375,57.12890625,182.6171875
1656238969396.5938,100.09765625,556.640625,335.44921875,60.05859375,13.671875
1656238969400.5,123.046875,339.35546875,202.63671875,68.84765625,-7.8125
1656238969404.4062,103.02734375,368.65234375,199.21875,60.546875,20.99609375
1656238969408.3125,81.0546875,533.69140625,368.1640625,54.19921875,-103.515625
1656238969412.2188,77.1484375,416.9921875,337.890625,54.19921875,-166.015625
1656238969416.125,72.265625,211.42578125,212.890625,28.3203125,-21.97265625
1656238969420.0312,48.828125,177.734375,214.35546875,-4.39453125,132.8125
1656238969423.9375,13.671875,233.3984375,262.6953125,-35.64453125,110.83984375
1656238969427.8438,-0.48828125,204.1015625,247.0703125,-40.0390625,-14.6484375
1656238969431.75,-19.53125,-218.26171875,-68.84765625,-32.2265625,139.6484375
1656238969435.6562,-35.15625,-189.453125,-157.2265625,-46.38671875,191.40625
1656238969439.5625,-11.71875,545.41015625,401.3671875,-65.91796875,-87.890625
1656238969443.4688,-17.578125,492.1875,464.84375,-61.5234375,-100.09765625
1656238969447.375,-36.1328125,56.640625,123.046875,-56.640625,34.1796875
1656238969451.2812,-45.8984375,166.50390625,189.94140625,-60.05859375,14.16015625
1656238969455.1875,-56.15234375,261.23046875,273.92578125,-80.56640625,-4.8828125
1656238969459.0938,-51.7578125,235.83984375,254.8828125,-98.14453125,8.30078125
1656238969463,-68.84765625,64.453125,124.51171875,-110.83984375,63.4765625
1656238969466.9062,-102.5390625,59.5703125,98.6328125,-129.39453125,51.26953125
1656238969470.8125,-128.41796875,60.546875,111.328125,-143.06640625,18.06640625
1656238969474.7188,-141.11328125,-58.59375,-0.9765625,-163.57421875,78.61328125
1656238969478.625,-147.4609375,-246.58203125,-214.84375,-178.7109375,252.44140625
1656238969482.5312,-139.16015625,170.41015625,47.36328125,-175.78125,26.3671875
1656238969486.4375,-133.30078125,414.55078125,251.953125,-172.8515625,-187.01171875
1656238969490.3438,-142.08984375,-66.89453125,-85.9375,-171.38671875,-37.59765625
1656238969494.25,-126.46484375,-568.359375,-564.453125,-153.80859375,231.4453125
1656238969498.1562,-129.39453125,108.88671875,-150.390625,-175.78125,38.0859375
1656238969502.0625,-139.16015625,476.5625,197.75390625,-199.21875,-87.40234375
1656238969505.9688,-124.51171875,131.8359375,-26.85546875,-174.31640625,24.4140625
1656238969509.875,-108.88671875,58.10546875,-125,-140.13671875,26.3671875
1656238969513.7812,-89.35546875,-20.5078125,-185.05859375,-113.28125,89.84375
1656238969517.6875,-74.21875,21.97265625,-190.4296875,-113.76953125,95.703125
1656238969521.5938,-54.19921875,-268.5546875,-466.30859375,-112.79296875,240.72265625
1656238969525.5,-71.77734375,-581.0546875,-830.078125,-111.81640625,372.0703125
1656238969529.4062,-85.44921875,208.49609375,-291.015625,-110.3515625,54.19921875
1656238969533.3125,-53.22265625,447.265625,-21.484375,-87.40234375,-83.0078125
1656238969537.2188,-34.66796875,139.16015625,-224.609375,-73.73046875,0.9765625
1656238969541.125,-31.25,330.078125,-63.4765625,-71.77734375,-53.7109375
1656238969545.0312,-34.66796875,381.34765625,4.8828125,-71.2890625,-128.90625
1656238969548.9375,-37.59765625,138.671875,-152.34375,-60.546875,-41.50390625
1656238969552.8438,-32.71484375,-14.6484375,-287.109375,-49.31640625,-9.765625
1656238969556.75,-34.66796875,111.328125,-190.4296875,-61.03515625,-64.94140625
1656238969560.6562,-29.78515625,43.9453125,-212.890625,-74.70703125,-16.11328125
1656238969564.5625,-14.6484375,-160.15625,-401.85546875,-62.98828125,71.77734375
1656238969568.4688,-34.1796875,-630.37109375,-816.40625,-47.36328125,295.41015625
1656238969572.375,-34.1796875,-142.578125,-500,-40.52734375,241.2109375
1656238969576.2812,-11.23046875,492.1875,64.94140625,-46.875,-38.57421875
1656238969580.1875,-10.25390625,205.56640625,-71.2890625,-62.98828125,-20.5078125
1656238969584.0938,-19.53125,52.24609375,-208.49609375,-67.87109375,50.29296875
1656238969588,-32.71484375,268.5546875,4.8828125,-69.3359375,-53.22265625
1656238969591.9062,-63.4765625,272.94921875,132.32421875,-88.8671875,-59.5703125
1656238969595.8125,-82.51953125,-22.94921875,-45.8984375,-114.2578125,-2.44140625
1656238969599.7188,-72.75390625,65.4296875,31.25,-143.06640625,-14.6484375
1656238969603.625,-89.84375,183.59375,202.1484375,-163.57421875,-34.1796875
1656238969607.5312,-108.3984375,-111.328125,31.25,-146.484375,29.296875
1656238969611.4375,-136.71875,-543.9453125,-308.10546875,-144.04296875,272.4609375
1656238969615.3438,-148.4375,-539.55078125,-386.71875,-172.36328125,310.546875
1656238969619.25,-144.04296875,164.0625,164.0625,-198.2421875,-32.2265625
1656238969623.1562,-164.55078125,228.02734375,366.2109375,-216.30859375,-94.23828125
1656238969627.0625,-192.3828125,-231.4453125,82.03125,-225.09765625,2.9296875
1656238969630.9688,-220.703125,-327.63671875,-10.25390625,-227.05078125,2.44140625
1656238969634.875,-218.26171875,4.39453125,286.62109375,-243.1640625,-53.22265625
1656238969638.7812,-219.23828125,-10.25390625,374.0234375,-254.8828125,-27.34375
1656238969642.6875,-249.0234375,-447.265625,45.41015625,-262.6953125,126.46484375
1656238969646.5938,-267.08984375,-197.75390625,208.984375,-275.390625,27.34375
1656238969650.5,-282.2265625,45.41015625,457.51953125,-300.29296875,-70.3125
1656238969654.4062,-275.87890625,-415.52734375,169.43359375,-300.78125,70.80078125
1656238969658.3125,-207.51953125,-841.796875,-224.609375,-242.67578125,369.140625
1656238969662.2188,-176.7578125,-205.56640625,207.03125,-220.703125,171.38671875
1656238969666.125,-163.0859375,177.734375,577.63671875,-194.3359375,-61.03515625
1656238969670.0312,-139.6484375,-157.2265625,376.953125,-163.0859375,-1.46484375
1656238969673.9375,-138.671875,-225.09765625,295.41015625,-154.296875,6.8359375
1656238969677.8438,-86.42578125,-46.875,410.15625,-106.93359375,-86.42578125
1656238969681.75,-13.18359375,8.7890625,496.58203125,-53.7109375,-112.79296875
1656238969685.6562,11.71875,-251.46484375,317.3828125,-19.53125,-2.44140625
1656238969689.5625,20.99609375,-312.01171875,232.421875,14.6484375,66.89453125
1656238969693.4688,42.96875,-8.30078125,441.40625,41.9921875,11.23046875
1656238969697.375,58.10546875,41.9921875,470.21484375,31.73828125,-15.13671875
1656238969701.2812,33.203125,-331.54296875,175.29296875,-14.16015625,173.828125
1656238969705.1875,-0.48828125,-385.25390625,77.63671875,-37.109375,175.78125
1656238969709.0938,-10.25390625,-16.6015625,303.7109375,-20.99609375,15.625
1656238969713,-4.39453125,90.8203125,415.52734375,-9.765625,-80.56640625
1656238969716.9062,2.44140625,-527.34375,-41.9921875,-14.6484375,132.32421875
1656238969720.8125,18.5546875,-806.15234375,-388.671875,-20.99609375,371.09375
1656238969724.7188,19.53125,83.49609375,226.5625,-20.5078125,31.73828125
1656238969728.625,3.41796875,229.00390625,420.8984375,-8.30078125,-88.37890625
1656238969732.5312,14.16015625,-96.19140625,186.03515625,5.37109375,7.32421875
1656238969736.4375,23.4375,86.9140625,290.0390625,-17.08984375,-70.3125
1656238969740.3438,14.16015625,213.37890625,390.13671875,-42.96875,-140.625
1656238969744.25,18.06640625,20.01953125,247.0703125,-23.92578125,-3.41796875
1656238969748.1562,17.08984375,-237.3046875,48.33984375,4.39453125,182.12890625
1656238969752.0625,18.06640625,-264.6484375,-17.578125,17.08984375,93.75
1656238969755.9688,11.23046875,-16.6015625,99.609375,-3.90625,34.66796875
1656238969759.875,16.6015625,33.203125,157.2265625,-13.671875,61.5234375
1656238969763.7812,27.34375,-507.8125,-297.8515625,0,233.3984375
1656238969767.6875,49.8046875,15.625,-1.953125,31.73828125,79.1015625
1656238969771.5938,92.28515625,405.76171875,330.078125,73.2421875,-110.83984375
1656238969775.5,123.53515625,46.38671875,80.56640625,88.37890625,3.90625
1656238969779.4062,142.578125,29.296875,-17.578125,93.26171875,46.38671875
1656238969783.3125,152.34375,334.9609375,208.0078125,96.6796875,-44.43359375
1656238969787.2188,153.3203125,355.46875,281.25,118.65234375,-17.578125
1656238969791.125,163.57421875,21.97265625,1.953125,144.53125,31.25
1656238969795.0312,183.59375,-85.9375,-133.30078125,148.4375,54.6875
1656238969798.9375,191.40625,32.71484375,-84.9609375,147.94921875,98.6328125
1656238969802.8438,197.75390625,282.2265625,92.7734375,148.92578125,53.22265625
1656238969806.75,210.9375,-104.00390625,-197.75390625,181.640625,257.8125
1656238969810.6562,219.7265625,-510.7421875,-642.578125,213.8671875,408.203125
1656238969814.5625,235.3515625,353.02734375,-56.15234375,208.984375,40.0390625
1656238969818.4688,239.74609375,585.44921875,217.7734375,182.6171875,-72.75390625
1656238969822.375,213.37890625,228.02734375,-2.9296875,164.0625,-9.765625
1656238969826.2812,184.08203125,370.1171875,107.91015625,140.625,-99.12109375
1656238969830.1875,143.06640625,430.17578125,189.94140625,108.3984375,-94.7265625
1656238969834.0938,106.4453125,229.4921875,48.828125,75.1953125,-63.4765625
1656238969838,86.42578125,121.09375,-52.734375,40.52734375,-17.578125
1656238969841.9062,70.80078125,97.16796875,-83.49609375,26.3671875,43.45703125
1656238969845.8125,46.38671875,132.32421875,-99.609375,17.578125,96.19140625
1656238969849.7188,27.83203125,6.34765625,-205.078125,28.80859375,136.23046875
1656238969853.625,33.203125,-443.84765625,-608.88671875,37.59765625,288.0859375
1656238969857.5312,51.7578125,120.1171875,-236.81640625,8.7890625,102.5390625
1656238969861.4375,59.5703125,535.64453125,154.78515625,-5.37109375,-71.2890625
1656238969865.3438,46.38671875,135.25390625,-107.421875,8.7890625,100.09765625
1656238969869.25,24.90234375,79.58984375,-210.9375,2.44140625,80.56640625
1656238969873.1562,12.6953125,331.0546875,-2.44140625,-15.13671875,-88.8671875
1656238969877.0625,29.78515625,344.23828125,88.8671875,-0.9765625,-86.42578125
1656238969880.9688,66.89453125,120.1171875,-76.171875,12.20703125,-5.37109375
1656238969884.875,55.17578125,198.73046875,-51.26953125,13.671875,-15.13671875
1656238969888.7812,19.04296875,99.609375,-95.21484375,12.6953125,-5.859375
1656238969892.6875,0,-8.30078125,-156.73828125,-5.37109375,101.07421875
1656238969896.5938,-20.5078125,-311.5234375,-432.12890625,-40.0390625,178.7109375
1656238969900.5,-27.83203125,-339.84375,-578.61328125,-55.6640625,151.85546875
1656238969904.4062,-28.80859375,411.1328125,7.32421875,-57.6171875,-28.80859375
1656238969908.3125,-41.9921875,358.88671875,87.40234375,-48.828125,-71.77734375
1656238969912.2188,-58.59375,-7.32421875,-174.8046875,-57.6171875,-7.8125
1656238969916.125,-52.24609375,163.57421875,-39.55078125,-86.42578125,-47.8515625
1656238969920.0312,-40.52734375,189.453125,5.37109375,-100.09765625,-103.515625
1656238969923.9375,-41.50390625,-117.67578125,-218.75,-89.35546875,56.15234375
1656238969927.8438,-55.6640625,-287.109375,-381.8359375,-70.3125,171.38671875
1656238969931.75,-65.4296875,8.30078125,-193.359375,-72.265625,-8.30078125
1656238969935.6562,-47.8515625,34.1796875,-145.99609375,-76.66015625,-57.6171875
1656238969939.5625,-29.296875,-179.19921875,-314.453125,-73.73046875,71.77734375
1656238969943.4688,-38.57421875,-522.94921875,-651.3671875,-66.40625,262.6953125
1656238969947.375,-53.7109375,-21.97265625,-331.0546875,-72.265625,114.2578125
1656238969951.2812,-60.546875,412.109375,85.44921875,-60.546875,-84.47265625
1656238969955.1875,-44.921875,106.93359375,-59.08203125,-42.48046875,2.9296875
1656238969959.0938,-7.8125,62.01171875,-119.140625,-41.9921875,-1.953125
1656238969963,39.55078125,256.8359375,44.43359375,7.32421875,-55.6640625
1656238969966.9062,87.890625,226.5625,73.73046875,66.40625,-30.76171875
1656238969970.8125,106.4453125,-52.734375,-129.8828125,100.09765625,44.43359375
1656238969974.7188,119.62890625,-3.90625,-135.7421875,109.375,9.765625
1656238969978.625,130.859375,69.82421875,-105.95703125,99.12109375,-32.2265625
1656238969982.5312,129.39453125,0.48828125,-161.62109375,96.19140625,-4.39453125
1656238969986.4375,126.953125,-342.28515625,-439.94140625,103.515625,220.21484375
1656238969990.3438,115.234375,-717.7734375,-835.9375,110.3515625,500.9765625
1656238969994.25,109.375,136.23046875,-232.421875,89.35546875,179.19921875
1656238969998.1562,122.55859375,437.5,89.84375,71.77734375,-46.38671875
1656238970002.0625,138.18359375,75.68359375,-134.27734375,76.66015625,-9.27734375
1656238970005.9688,129.39453125,201.66015625,-23.4375,84.9609375,-54.6875
1656238970009.875,117.1875,252.9296875,55.6640625,79.58984375,-96.6796875
1656238970013.7812,108.88671875,53.22265625,-46.38671875,54.19921875,-53.7109375
1656238970017.6875,97.65625,-102.05078125,-174.31640625,31.25,24.4140625
1656238970021.5938,68.359375,81.54296875,-33.203125,3.90625,-34.1796875
1656238970025.5,13.671875,139.6484375,69.3359375,-22.4609375,-103.02734375
1656238970029.4062,-35.15625,-295.41015625,-217.7734375,-32.2265625,83.984375
1656238970033.3125,-62.01171875,-693.84765625,-580.078125,-52.24609375,355.95703125
1656238970037.2188,-60.05859375,-238.28125,-293.45703125,-79.58984375,197.265625
1656238970041.125,-54.6875,134.765625,55.17578125,-89.84375,97.16796875
1656238970045.0312,-61.03515625,-86.9140625,-41.9921875,-79.58984375,129.39453125
1656238970048.9375,-68.359375,-587.40234375,-479.98046875,-65.4296875,295.8984375
1656238970052.8438,-62.98828125,-150.390625,-215.33203125,-66.89453125,180.6640625
1656238970056.75,-54.6875,167.96875,79.1015625,-81.54296875,-11.23046875
1656238970060.6562,-47.8515625,-58.10546875,-34.66796875,-85.44921875,56.640625
1656238970064.5625,-42.96875,-10.7421875,12.20703125,-71.77734375,81.54296875
1656238970068.4688,-49.31640625,67.3828125,73.73046875,-62.01171875,0.48828125
1656238970072.375,-64.94140625,-39.0625,22.4609375,-82.03125,27.34375
1656238970076.2812,-67.3828125,-395.99609375,-229.4921875,-104.98046875,226.07421875
1656238970080.1875,-60.05859375,-414.55078125,-316.89453125,-111.328125,200.1953125
1656238970084.0938,-73.73046875,-36.1328125,-111.328125,-107.421875,20.01953125
1656238970088,-78.61328125,59.08203125,8.30078125,-86.9140625,21.97265625
1656238970091.9062,-71.77734375,-501.953125,-401.85546875,-87.40234375,189.94140625
1656238970095.8125,-64.453125,-562.5,-569.3359375,-103.515625,179.19921875
1656238970099.7188,-50.78125,-14.16015625,-160.15625,-104.98046875,21.97265625
1656238970103.625,-39.55078125,66.40625,-37.109375,-90.8203125,50.29296875
1656238970107.5312,-38.57421875,-359.375,-363.76953125,-71.2890625,208.984375
1656238970111.4375,-37.59765625,-198.73046875,-277.34375,-71.2890625,41.9921875
1656238970115.3438,-37.59765625,26.85546875,-114.74609375,-81.0546875,-127.9296875
1656238970119.25,-24.4140625,-83.984375,-183.59375,-61.03515625,-51.26953125
1656238970123.1562,2.44140625,-293.9453125,-371.09375,-33.203125,47.36328125
1656238970127.0625,-11.71875,-352.5390625,-479.4921875,-35.15625,47.8515625
1656238970130.9688,-41.50390625,-25.87890625,-256.8359375,-54.19921875,-52.24609375
1656238970134.875,-37.59765625,-110.3515625,-291.9921875,-58.59375,-21.97265625
1656238970138.7812,-24.4140625,-681.15234375,-773.92578125,-46.38671875,243.65234375
1656238970142.6875,-15.13671875,-99.12109375,-400.87890625,-52.734375,84.9609375
1656238970146.5938,-16.11328125,263.671875,-77.1484375,-54.19921875,-141.11328125
1656238970150.5,-27.83203125,-95.21484375,-304.6875,-41.015625,-91.30859375
1656238970154.4062,-31.25,-141.11328125,-363.76953125,-52.734375,-17.578125
1656238970158.3125,-28.80859375,-60.05859375,-325.1953125,-76.171875,44.43359375
1656238970162.2188,-34.1796875,114.2578125,-185.05859375,-83.0078125,-66.89453125
1656238970166.125,-40.0390625,-166.015625,-375.48828125,-68.359375,7.8125
1656238970170.0312,-44.43359375,-428.7109375,-614.2578125,-54.19921875,132.8125
1656238970173.9375,-42.96875,-173.33984375,-469.23828125,-62.01171875,30.2734375
1656238970177.8438,-29.296875,137.20703125,-215.33203125,-81.0546875,-87.890625
1656238970181.75,-5.37109375,-263.18359375,-495.1171875,-36.62109375,85.44921875
1656238970185.6562,-7.8125,-383.30078125,-689.453125,-17.578125,203.125
1656238970189.5625,-40.52734375,239.2578125,-244.62890625,-50.78125,-51.7578125
1656238970193.4688,-62.98828125,176.7578125,-204.1015625,-64.94140625,-43.45703125
1656238970197.375,-62.98828125,-36.1328125,-346.19140625,-71.77734375,40.52734375
1656238970201.2812,-50.29296875,148.4375,-210.9375,-70.80078125,-46.875
1656238970205.1875,-58.59375,202.1484375,-134.765625,-79.58984375,-97.65625
1656238970209.0938,-72.265625,22.4609375,-229.98046875,-85.44921875,-18.06640625
1656238970213,-59.5703125,-254.8828125,-436.03515625,-72.265625,61.5234375
1656238970216.9062,-51.26953125,-287.59765625,-508.7890625,-77.63671875,43.9453125
1656238970220.8125,-50.78125,-120.60546875,-426.26953125,-92.7734375,35.64453125
1656238970224.7188,-41.015625,-109.375,-427.24609375,-61.03515625,84.9609375
1656238970228.625,-34.66796875,-669.921875,-869.62890625,-23.4375,282.71484375
1656238970232.5312,-21.97265625,-373.046875,-746.09375,-30.2734375,145.99609375
1656238970236.4375,-9.27734375,349.12109375,-195.3125,-44.921875,-140.625
1656238970240.3438,-5.859375,192.87109375,-198.2421875,-47.36328125,-85.9375
1656238970244.25,5.859375,147.94921875,-211.9140625,-32.71484375,-36.62109375
1656238970248.1562,3.90625,228.02734375,-149.90234375,-9.765625,-84.47265625
1656238970252.0625,-3.41796875,98.14453125,-203.61328125,-8.30078125,-88.37890625
1656238970255.9688,5.37109375,-92.7734375,-339.35546875,-22.4609375,-33.203125
1656238970259.875,28.80859375,18.5546875,-275.87890625,-24.4140625,-15.625
1656238970263.7812,-2.9296875,-49.31640625,-296.38671875,-41.50390625,35.15625
1656238970267.6875,-54.6875,-172.36328125,-418.9453125,-71.2890625,17.578125
1656238970271.5938,-53.7109375,-517.08984375,-699.70703125,-68.359375,180.6640625
1656238970275.5,-48.33984375,-804.19921875,-956.54296875,-67.3828125,399.4140625
1656238970279.4062,-75.1953125,140.625,-314.453125,-115.234375,57.12890625
1656238970283.3125,-140.13671875,399.4140625,-33.203125,-182.6171875,-115.234375
1656238970287.2188,-182.6171875,-64.94140625,-319.3359375,-212.890625,-25.87890625
1656238970291.125,-187.98828125,6.34765625,-259.27734375,-216.796875,-83.0078125
1656238970295.0312,-174.31640625,109.375,-152.83203125,-222.65625,-176.26953125
1656238970298.9375,-165.0390625,-31.73828125,-246.09375,-214.35546875,-151.85546875
1656238970302.8438,-169.43359375,-92.28515625,-309.08203125,-205.078125,-14.16015625
1656238970306.75,-197.265625,-11.23046875,-242.67578125,-219.23828125,-13.18359375
1656238970310.6562,-216.30859375,-144.04296875,-335.9375,-227.5390625,-23.4375
1656238970314.5625,-208.0078125,-342.7734375,-515.13671875,-222.65625,121.09375
1656238970318.4688,-198.2421875,-709.47265625,-860.83984375,-237.3046875,328.125
1656238970322.375,-195.3125,-153.80859375,-556.640625,-250,101.07421875
1656238970326.2812,-197.265625,315.91796875,-171.875,-232.421875,-116.2109375
1656238970330.1875,-202.1484375,-108.88671875,-433.59375,-224.609375,-38.57421875
1656238970334.0938,-189.453125,-119.140625,-488.76953125,-222.65625,39.0625
1656238970338,-157.71484375,201.66015625,-278.3203125,-207.03125,-71.77734375
1656238970341.9062,-136.23046875,265.625,-191.40625,-182.12890625,-100.09765625
1656238970345.8125,-135.7421875,-16.6015625,-375.48828125,-174.31640625,29.78515625
1656238970349.7188,-160.15625,-39.0625,-431.640625,-190.4296875,52.24609375
1656238970353.625,-180.6640625,146.484375,-292.96875,-206.54296875,-15.13671875
1656238970357.5312,-154.78515625,13.671875,-373.53515625,-205.56640625,-21.97265625
1656238970361.4375,-141.6015625,-352.5390625,-669.43359375,-198.2421875,191.40625
1656238970365.3438,-163.57421875,-408.69140625,-832.03125,-202.1484375,281.73828125
1656238970369.25,-186.5234375,222.65625,-404.78515625,-233.3984375,-32.71484375
1656238970373.1562,-194.3359375,320.3125,-232.421875,-243.1640625,-64.94140625
1656238970377.0625,-168.9453125,78.125,-397.94921875,-224.12109375,75.68359375
1656238970380.9688,-130.37109375,250,-265.13671875,-202.63671875,31.73828125
1656238970384.875,-107.91015625,377.44140625,-126.953125,-174.31640625,-67.87109375
1656238970388.7812,-96.19140625,59.5703125,-316.40625,-127.44140625,18.06640625
1656238970392.6875,-71.2890625,-356.4453125,-691.40625,-109.86328125,197.265625
1656238970396.5938,-53.22265625,77.1484375,-433.10546875,-130.859375,13.18359375
1656238970400.5,-64.453125,446.77734375,-79.1015625,-139.6484375,-62.5
1656238970404.4062,-75.1953125,6.34765625,-359.375,-137.6953125,119.62890625
1656238970408.3125,-66.89453125,-552.24609375,-834.47265625,-122.0703125,358.88671875
1656238970412.2188,-71.2890625,34.1796875,-442.87109375,-120.60546875,162.59765625
1656238970416.125,-64.453125,503.41796875,5.859375,-117.1875,-71.2890625
1656238970420.0312,-35.15625,227.5390625,-124.0234375,-95.703125,-27.34375
1656238970423.9375,-9.27734375,146.97265625,-168.9453125,-72.265625,-6.8359375
1656238970427.8438,14.6484375,267.08984375,-55.17578125,-32.71484375,-62.98828125
1656238970431.75,25.87890625,300.29296875,8.7890625,-3.90625,-42.48046875
1656238970435.6562,45.8984375,115.234375,-98.14453125,1.953125,40.52734375
1656238970439.5625,62.01171875,145.99609375,-75.68359375,-6.8359375,20.99609375
1656238970443.4688,56.640625,316.89453125,69.3359375,-12.20703125,-50.29296875
1656238970447.375,41.50390625,154.296875,-4.8828125,-6.34765625,-10.25390625
1656238970451.2812,30.76171875,-192.87109375,-244.62890625,1.953125,209.47265625
1656238970455.1875,51.26953125,-153.80859375,-242.1875,7.8125,247.0703125
1656238970459.0938,65.4296875,212.40234375,41.015625,8.30078125,129.39453125
1656238970463,63.4765625,408.203125,255.859375,12.6953125,-47.8515625
1656238970466.9062,52.734375,-234.86328125,-195.80078125,26.3671875,99.609375
1656238970470.8125,50.29296875,-486.81640625,-474.12109375,42.96875,270.99609375
1656238970474.7188,66.40625,324.70703125,146.97265625,49.31640625,12.6953125
1656238970478.625,77.1484375,483.88671875,390.13671875,41.9921875,-72.75390625
1656238970482.5312,96.19140625,241.69921875,248.53515625,51.26953125,8.30078125
1656238970486.4375,93.75,352.05078125,350.5859375,63.96484375,-4.8828125
1656238970490.3438,82.51953125,402.83203125,461.9140625,68.84765625,-81.0546875
1656238970494.25,113.28125,209.47265625,382.8125,75.1953125,-23.92578125
1656238970498.1562,132.32421875,-67.3828125,187.5,66.89453125,188.4765625
1656238970502.0625,108.88671875,36.1328125,249.51171875,59.5703125,136.71875
1656238970505.9688,82.03125,231.93359375,440.4296875,45.41015625,18.5546875
1656238970509.875,71.77734375,29.78515625,355.46875,44.43359375,59.08203125
1656238970513.7812,69.82421875,-497.55859375,-86.42578125,50.29296875,286.62109375
1656238970517.6875,89.84375,68.84765625,283.203125,46.38671875,170.41015625
1656238970521.5938,104.00390625,600.5859375,774.4140625,41.50390625,-72.75390625
1656238970525.5,95.21484375,243.65234375,599.12109375,45.8984375,-2.44140625
1656238970529.4062,96.19140625,226.5625,616.2109375,65.91796875,19.53125
1656238970533.3125,113.76953125,356.4453125,737.79296875,79.58984375,-54.19921875
1656238970537.2188,137.6953125,351.5625,759.765625,92.7734375,-49.8046875
1656238970541.125,153.3203125,118.65234375,601.07421875,102.05078125,26.85546875
1656238970545.0312,131.34765625,-25.87890625,449.21875,88.8671875,65.91796875
1656238970548.9375,116.2109375,45.8984375,479.98046875,83.984375,79.1015625
1656238970552.8438,107.91015625,163.57421875,588.8671875,74.21875,57.6171875
1656238970556.75,92.28515625,-112.79296875,381.34765625,46.875,199.21875
1656238970560.6562,45.8984375,-101.5625,304.6875,-12.6953125,223.6328125
1656238970564.5625,-35.64453125,476.07421875,763.671875,-85.44921875,45.8984375
1656238970568.4688,-72.75390625,303.7109375,720.21484375,-118.1640625,78.61328125
1656238970572.375,-78.125,-57.6171875,437.5,-123.046875,100.5859375
1656238970576.2812,-64.94140625,369.140625,758.30078125,-130.859375,18.06640625
1656238970580.1875,-55.6640625,622.55859375,-982.421875,-136.71875,-90.8203125
1656238970584.0938,-69.82421875,354.4921875,889.6484375,-124.0234375,-69.82421875
1656238970588,-90.8203125,206.54296875,795.8984375,-121.58203125,5.37109375
1656238970591.9062,-104.4921875,83.984375,711.9140625,-122.55859375,63.4765625
1656238970595.8125,-96.6796875,126.46484375,753.41796875,-136.71875,61.03515625
1656238970599.7188,-98.6328125,109.86328125,756.34765625,-170.41015625,41.015625
1656238970603.625,-164.55078125,-390.625,329.58984375,-209.47265625,221.19140625
1656238970607.5312,-229.98046875,128.41796875,645.01953125,-263.18359375,71.77734375
1656238970611.4375,-250,599.609375,-971.19140625,-291.50390625,-135.7421875
1656238970615.3438,-225.5859375,316.40625,918.9453125,-284.1796875,-27.34375
1656238970619.25,-197.75390625,342.7734375,945.80078125,-265.13671875,-50.78125
1656238970623.1562,-218.75,341.796875,952.1484375,-277.34375,-47.8515625
1656238970627.0625,-197.75390625,187.5,905.2734375,-248.53515625,-5.859375
1656238970630.9688,-236.328125,45.8984375,783.203125,-286.62109375,-11.71875
1656238970634.875,-532.71484375,313.4765625,805.6640625,-583.984375,-4.8828125
1656238970638.7812,-700.1953125,720.703125,929.19921875,-734.375,-44.921875
1656238970642.6875,-668.45703125,887.20703125,966.30859375,-713.8671875,-41.015625
1656238970646.5938,-645.5078125,781.25,774.90234375,-702.1484375,115.72265625
1656238970650.5,-633.30078125,720.703125,644.53125,-672.8515625,193.84765625
1656238970654.4062,-604.00390625,986.328125,955.078125,-638.671875,-57.12890625
1656238970658.3125,-556.15234375,967.7734375,980.95703125,-605.46875,-108.3984375
1656238970662.2188,-529.296875,951.66015625,945.80078125,-585.44921875,-20.01953125
1656238970666.125,-524.4140625,966.30859375,968.75,-552.734375,-76.66015625
1656238970670.0312,-519.53125,975.5859375,971.19140625,-534.66796875,-84.9609375
1656238970673.9375,-506.34765625,951.66015625,962.890625,-548.828125,6.34765625
1656238970677.8438,-470.703125,944.82421875,963.8671875,-543.9453125,40.0390625
1656238970681.75,-438.4765625,943.84765625,952.1484375,-499.51171875,39.55078125
1656238970685.6562,-408.203125,894.04296875,985.83984375,-445.80078125,78.125
1656238970689.5625,-386.23046875,731.4453125,949.70703125,-417.48046875,141.11328125
1656238970693.4688,-357.91015625,209.9609375,493.1640625,-392.08984375,436.5234375
1656238970697.375,-322.75390625,551.26953125,643.5546875,-375,293.9453125
1656238970701.2812,-305.17578125,-951.66015625,-985.3515625,-359.86328125,-55.17578125
1656238970705.1875,-302.734375,906.25,950.1953125,-335.44921875,-22.4609375
1656238970709.0938,-291.015625,893.06640625,960.44921875,-313.96484375,-0.9765625
1656238970713,-264.6484375,930.6640625,969.23828125,-298.828125,-87.40234375
1656238970716.9062,-255.859375,850.09765625,974.609375,-296.875,-138.671875
1656238970720.8125,-246.58203125,613.28125,935.05859375,-294.921875,-45.8984375
1656238970724.7188,-265.625,665.52734375,942.3828125,-293.9453125,-1.46484375
1656238970728.625,-281.25,702.63671875,956.54296875,-285.64453125,-9.765625
1656238970732.5312,-270.5078125,435.05859375,877.9296875,-291.015625,48.828125
1656238970736.4375,-250.48828125,40.52734375,560.546875,-287.109375,183.10546875
1656238970740.3438,-230.46875,-103.515625,333.49609375,-269.53125,286.62109375
1656238970744.25,-213.8671875,579.1015625,802.24609375,-259.765625,109.375
1656238970748.1562,-210.9375,759.27734375,-995.1171875,-250,-46.38671875
1656238970752.0625,-216.30859375,165.0390625,666.015625,-252.9296875,46.875
1656238970755.9688,-205.56640625,346.6796875,783.69140625,-253.41796875,5.37109375
1656238970759.875,-197.265625,683.59375,-975.09765625,-249.51171875,-75.1953125
1656238970763.7812,-195.80078125,441.89453125,924.31640625,-240.72265625,-48.828125
1656238970767.6875,-192.87109375,193.359375,771.484375,-228.515625,0.48828125
1656238970771.5938,-174.8046875,307.6171875,835.9375,-205.56640625,-28.80859375
1656238970775.5,-166.50390625,427.24609375,942.87109375,-198.73046875,-43.45703125
1656238970779.4062,-153.3203125,76.66015625,690.91796875,-203.125,99.609375
1656238970783.3125,-144.04296875,-357.91015625,282.71484375,-187.5,323.2421875
1656238970787.2188,-162.59765625,136.23046875,570.3125,-191.40625,137.6953125
1656238970791.125,-162.109375,494.140625,860.3515625,-198.2421875,-76.171875
1656238970795.0312,-157.71484375,211.9140625,690.4296875,-204.58984375,16.6015625
1656238970798.9375,-151.3671875,-48.33984375,463.37890625,-205.078125,123.53515625
1656238970802.8438,-138.18359375,189.453125,603.02734375,-188.96484375,32.2265625
1656238970806.75,-146.484375,409.66796875,807.12890625,-184.08203125,-46.38671875
1656238970810.6562,-145.99609375,88.37890625,585.9375,-166.9921875,27.83203125
1656238970814.5625,-130.859375,-30.76171875,445.80078125,-152.83203125,64.453125
1656238970818.4688,-107.91015625,285.64453125,652.83203125,-165.0390625,-52.24609375
1656238970822.375,-104.98046875,323.73046875,714.84375,-158.203125,-105.46875
1656238970826.2812,-102.05078125,-137.6953125,402.83203125,-127.44140625,178.22265625
1656238970830.1875,-99.12109375,-220.21484375,294.921875,-120.1171875,270.01953125
1656238970834.0938,-91.30859375,245.1171875,606.4453125,-126.46484375,26.85546875
1656238970838,-72.265625,304.19921875,669.43359375,-124.0234375,-62.5
1656238970841.9062,-70.3125,-148.4375,324.70703125,-112.79296875,123.046875
1656238970845.8125,-86.42578125,-26.85546875,360.3515625,-106.93359375,132.32421875
1656238970849.7188,-101.5625,339.35546875,656.73828125,-115.234375,-66.89453125
1656238970853.625,-106.93359375,170.41015625,594.23828125,-141.6015625,-62.5
1656238970857.5312,-102.05078125,-162.109375,319.3359375,-165.52734375,-11.71875
1656238970861.4375,-82.03125,-38.0859375,359.86328125,-153.80859375,-0.48828125
1656238970865.3438,-77.63671875,265.13671875,604.98046875,-135.7421875,-85.44921875
1656238970869.25,-95.21484375,82.03125,474.12109375,-139.6484375,-30.2734375
1656238970873.1562,-104.98046875,-464.84375,-62.98828125,-145.99609375,296.875
1656238970877.0625,-95.703125,-43.9453125,83.49609375,-154.78515625,243.65234375
1656238970880.9688,-76.66015625,682.12890625,608.3984375,-146.97265625,-26.85546875
1656238970884.875,-91.796875,450.68359375,466.30859375,-127.44140625,-5.37109375
1656238970888.7812,-114.2578125,56.15234375,133.7890625,-125.9765625,129.39453125
1656238970892.6875,-162.59765625,451.66015625,441.40625,-181.640625,28.80859375
1656238970896.5938,-338.8671875,474.12109375,553.7109375,-371.09375,-14.6484375
1656238970900.5,-389.16015625,236.81640625,429.6875,-439.94140625,-7.32421875
1656238970904.4062,-338.8671875,219.23828125,425.29296875,-374.51171875,-55.17578125
1656238970908.3125,-326.171875,309.5703125,532.71484375,-331.0546875,-47.36328125
1656238970912.2188,-292.96875,256.8359375,535.64453125,-304.19921875,-30.76171875
1656238970916.125,-232.91015625,-24.90234375,311.5234375,-256.8359375,74.21875
1656238970920.0312,-158.69140625,-51.7578125,251.46484375,-192.87109375,103.515625
1656238970923.9375,-108.88671875,81.54296875,298.828125,-134.27734375,64.453125
1656238970927.8438,-72.265625,216.30859375,370.1171875,-94.7265625,22.4609375
1656238970931.75,7.8125,-63.4765625,184.5703125,-20.01953125,186.03515625
1656238970935.6562,45.41015625,-366.69921875,-158.203125,23.4375,398.92578125
1656238970939.5625,48.33984375,550.29296875,492.1875,16.11328125,60.05859375
1656238970943.4688,54.19921875,822.265625,842.7734375,22.94921875,-68.84765625
1656238970947.375,38.57421875,469.7265625,650.87890625,20.99609375,72.75390625
1656238970951.2812,29.78515625,607.91015625,817.87109375,10.25390625,25.87890625
1656238970955.1875,34.1796875,675.78125,947.265625,5.37109375,-17.578125
1656238970959.0938,45.41015625,558.10546875,913.0859375,-2.9296875,11.71875
1656238970963,48.828125,386.71875,825.68359375,8.7890625,45.8984375
1656238970966.9062,36.62109375,272.4609375,770.99609375,25.390625,72.265625
1656238970970.8125,50.29296875,231.93359375,759.765625,28.80859375,52.24609375
1656238970974.7188,72.265625,215.33203125,757.32421875,21.97265625,95.21484375
1656238970978.625,76.171875,326.171875,825.68359375,27.83203125,114.74609375
1656238970982.5312,71.2890625,607.91015625,969.23828125,27.34375,-71.2890625
1656238970986.4375,34.66796875,640.625,973.6328125,13.18359375,-110.83984375
1656238970990.3438,7.32421875,335.44921875,951.171875,5.37109375,-4.39453125
1656238970994.25,2.44140625,239.74609375,953.125,-25.390625,46.38671875
1656238970998.1562,-5.859375,503.90625,950.68359375,-58.59375,-4.39453125
1656238971002.0625,-11.71875,571.77734375,999.51171875,-46.875,-76.66015625
1656238971005.9688,-18.06640625,150.390625,906.73828125,-32.71484375,86.9140625
1656238971009.875,-20.01953125,-506.34765625,520.5078125,-33.203125,433.59375
1656238971013.7812,-23.4375,-29.78515625,761.71875,-44.43359375,293.45703125
1656238971017.6875,-26.85546875,506.8359375,-946.2890625,-65.4296875,95.21484375
1656238971021.5938,-29.78515625,78.61328125,811.5234375,-67.87109375,178.22265625
1656238971025.5,-44.43359375,-40.52734375,735.83984375,-62.98828125,230.46875
1656238971029.4062,-67.3828125,610.3515625,973.6328125,-76.171875,7.32421875
1656238971033.3125,-83.0078125,520.99609375,974.12109375,-92.28515625,16.11328125
1656238971037.2188,-69.82421875,46.38671875,873.046875,-98.6328125,242.1875
1656238971041.125,-70.3125,352.5390625,930.6640625,-99.609375,55.6640625
1656238971045.0312,-71.77734375,580.078125,992.67578125,-83.984375,-133.30078125
1656238971048.9375,-62.01171875,308.59375,939.453125,-71.77734375,-60.05859375
1656238971052.8438,-51.7578125,120.60546875,897.94921875,-68.84765625,-16.6015625
1656238971056.75,-39.0625,310.05859375,954.1015625,-65.4296875,-71.77734375
1656238971060.6562,-23.92578125,247.55859375,897.4609375,-47.8515625,-21.97265625
1656238971064.5625,-26.3671875,6.8359375,707.03125,-39.0625,116.69921875
1656238971068.4688,-42.96875,5.859375,596.19140625,-38.0859375,65.91796875
1656238971072.375,-37.109375,269.04296875,757.32421875,-30.76171875,-59.5703125
1656238971076.2812,0,518.06640625,955.56640625,-23.4375,-44.921875
1656238971080.1875,16.11328125,240.234375,756.8359375,-21.484375,11.23046875
1656238971084.0938,-13.18359375,-458.49609375,118.1640625,-22.94921875,268.5546875
1656238971088,-17.08984375,64.453125,379.39453125,-23.92578125,144.04296875
1656238971091.9062,3.90625,438.96484375,707.51953125,-20.5078125,-57.6171875
1656238971095.8125,22.94921875,83.984375,424.31640625,-17.578125,53.7109375
1656238971099.7188,27.34375,189.453125,401.3671875,-27.34375,-20.99609375
1656238971103.625,11.71875,437.01171875,576.171875,-34.1796875,-117.1875
1656238971107.5312,6.8359375,274.4140625,498.046875,-24.90234375,1.46484375
1656238971111.4375,14.6484375,-242.67578125,58.10546875,-8.30078125,252.9296875
1656238971115.3438,16.6015625,-289.55078125,-121.58203125,-8.7890625,313.96484375
1656238971119.25,24.4140625,488.28125,445.3125,-14.16015625,8.30078125
1656238971123.1562,26.85546875,508.7890625,540.52734375,1.46484375,-95.21484375
1656238971127.0625,20.5078125,93.26171875,228.02734375,16.11328125,-14.6484375
1656238971130.9688,25.390625,217.7734375,315.4296875,14.6484375,-8.7890625
1656238971134.875,68.359375,383.7890625,450.68359375,38.0859375,-64.453125
1656238971138.7812,139.6484375,281.73828125,383.7890625,105.46875,-17.578125
1656238971142.6875,155.2734375,113.28125,248.53515625,125,68.359375
1656238971146.5938,151.3671875,197.75390625,295.8984375,125.9765625,7.8125
1656238971150.5,143.5546875,135.7421875,241.69921875,130.859375,15.13671875
1656238971154.4062,118.1640625,-102.5390625,54.6875,92.28515625,147.94921875
1656238971158.3125,105.46875,-606.4453125,-402.83203125,61.5234375,321.2890625
1656238971162.2188,89.35546875,-168.45703125,-212.890625,58.59375,203.125
1656238971166.125,76.171875,442.87109375,285.15625,48.828125,-72.75390625
1656238971170.0312,71.77734375,161.62109375,160.15625,52.734375,-26.85546875
1656238971173.9375,70.3125,103.515625,116.2109375,43.45703125,30.76171875
1656238971177.8438,66.40625,312.5,283.69140625,20.99609375,-60.546875
1656238971181.75,70.80078125,297.8515625,322.265625,23.4375,-91.30859375
1656238971185.6562,68.84765625,6.8359375,122.55859375,34.66796875,-27.34375
1656238971189.5625,64.453125,-44.43359375,26.85546875,46.875,-9.765625
1656238971193.4688,79.58984375,168.9453125,179.6875,47.8515625,-63.96484375
1656238971197.375,95.21484375,213.37890625,276.3671875,42.96875,-18.06640625
1656238971201.2812,97.16796875,-112.3046875,70.80078125,44.921875,196.2890625
1656238971205.1875,47.36328125,-231.4453125,-73.73046875,21.484375,184.08203125
1656238971209.0938,24.4140625,-23.4375,31.73828125,1.953125,41.015625
1656238971213,31.73828125,-25.87890625,56.15234375,-5.37109375,92.28515625
1656238971216.9062,41.9921875,-231.4453125,-92.28515625,0.48828125,204.1015625
1656238971220.8125,53.22265625,27.83203125,62.01171875,-7.8125,114.2578125
1656238971224.7188,43.45703125,327.1484375,286.1328125,-9.765625,-56.640625
1656238971228.625,45.8984375,175.29296875,235.3515625,20.01953125,-38.0859375
1656238971232.5312,55.17578125,-509.27734375,-284.1796875,40.0390625,206.0546875
1656238971236.4375,69.82421875,-444.82421875,-365.234375,49.31640625,228.515625
1656238971240.3438,81.0546875,415.52734375,288.57421875,44.921875,-34.66796875
1656238971244.25,74.21875,287.109375,283.203125,35.15625,-34.66796875
1656238971248.1562,64.453125,-170.41015625,-62.98828125,31.73828125,70.3125
1656238971252.0625,57.12890625,-111.328125,-32.71484375,22.4609375,22.4609375
1656238971255.9688,42.48046875,288.57421875,292.48046875,7.32421875,-88.8671875
1656238971259.875,20.01953125,237.79296875,310.546875,-27.83203125,19.04296875
1656238971263.7812,-3.41796875,-316.89453125,-139.16015625,-48.33984375,259.27734375
1656238971267.6875,-14.16015625,9.765625,32.2265625,-48.33984375,156.25
1656238971271.5938,-9.27734375,328.61328125,300.78125,-48.33984375,2.9296875
1656238971275.5,6.8359375,177.734375,253.90625,-45.41015625,36.62109375
1656238971279.4062,7.8125,163.57421875,239.2578125,-43.9453125,88.37890625
1656238971283.3125,1.46484375,382.32421875,432.12890625,-30.2734375,-10.25390625
1656238971287.2188,6.8359375,344.7265625,439.94140625,-14.6484375,-58.10546875
1656238971291.125,11.23046875,25.87890625,210.9375,-13.671875,71.77734375
1656238971295.0312,4.8828125,-124.51171875,75.68359375,-38.0859375,163.57421875
1656238971298.9375,-11.23046875,73.2421875,201.171875,-62.98828125,71.77734375
1656238971302.8438,-13.18359375,337.40234375,409.1796875,-67.3828125,-43.9453125
1656238971306.75,-7.8125,-149.4140625,52.24609375,-44.43359375,147.4609375
1656238971310.6562,-12.6953125,-333.0078125,-196.77734375,-29.296875,215.33203125
1656238971314.5625,-9.27734375,384.27734375,327.1484375,-49.31640625,-41.50390625
1656238971318.4688,-7.8125,307.6171875,372.0703125,-62.5,5.859375
1656238971322.375,-14.6484375,157.71484375,273.4375,-63.96484375,34.66796875
1656238971326.2812,-31.25,187.98828125,279.78515625,-66.40625,-2.9296875
1656238971330.1875,-46.38671875,199.21875,288.57421875,-68.84765625,-18.5546875
1656238971334.0938,-40.52734375,222.65625,327.1484375,-73.73046875,-65.4296875
1656238971338,-35.64453125,-50.29296875,111.81640625,-86.42578125,82.51953125
