time,TP9,AF7,AF8,TP10,AUX
1656409013240.125,-73.73046875,-78.125,119.62890625,23.92578125,-105.46875
1656409013244.0312,-74.21875,-76.66015625,104.98046875,4.39453125,-120.60546875
1656409013247.9375,-68.359375,-78.125,95.703125,-3.41796875,-36.62109375
1656409013251.8438,-54.6875,-83.49609375,95.703125,-22.4609375,-44.921875
1656409013255.75,-42.48046875,-92.28515625,88.37890625,-16.6015625,-76.66015625
1656409013259.6562,-42.48046875,-95.703125,73.2421875,-16.6015625,-61.5234375
1656409013263.5625,-63.96484375,-95.703125,64.94140625,-32.71484375,166.50390625
1656409013267.4688,-81.0546875,-97.16796875,65.4296875,-30.76171875,221.6796875
1656409013271.375,-89.35546875,-100.5859375,67.87109375,-29.78515625,-89.35546875
1656409013275.2812,-85.44921875,-105.95703125,63.4765625,-16.11328125,-127.44140625
1656409013279.1875,-106.4453125,-103.515625,44.921875,-15.625,-42.48046875
1656409013283.0938,-105.95703125,-84.9609375,50.29296875,-25.390625,41.50390625
1656409013287,-65.4296875,-59.5703125,78.61328125,-3.41796875,-11.71875
1656409013290.9062,-60.546875,-53.22265625,87.890625,5.37109375,-78.61328125
1656409013294.8125,-59.5703125,-51.7578125,63.96484375,-7.8125,14.16015625
1656409013298.7188,-83.0078125,-68.84765625,18.06640625,-42.96875,12.20703125
1656409013302.625,-114.2578125,-98.6328125,-5.37109375,-61.03515625,-88.37890625
1656409013306.5312,-106.93359375,-93.26171875,3.90625,-44.921875,51.26953125
1656409013310.4375,-95.703125,-71.77734375,29.296875,-25.390625,308.59375
1656409013314.3438,-74.70703125,-65.91796875,40.0390625,-0.48828125,120.60546875
1656409013318.25,-64.453125,-64.453125,32.2265625,27.83203125,-118.1640625
1656409013322.1562,-77.63671875,-82.03125,20.5078125,15.625,-7.32421875
1656409013326.0625,-107.421875,-114.2578125,10.7421875,-23.92578125,51.26953125
1656409013329.9688,-137.20703125,-118.1640625,16.11328125,-40.52734375,-104.4921875
1656409013333.875,-139.16015625,-104.00390625,20.01953125,-34.1796875,-98.14453125
1656409013337.7812,-118.65234375,-83.984375,36.1328125,-20.01953125,1.953125
1656409013341.6875,-117.1875,-75.68359375,44.43359375,-29.78515625,125
1656409013345.5938,-103.515625,-70.80078125,32.71484375,-37.59765625,61.5234375
1656409013349.5,-96.19140625,-86.9140625,26.3671875,-46.38671875,-152.34375
1656409013353.4062,-81.54296875,-104.98046875,35.15625,-40.52734375,183.59375
1656409013357.3125,-42.48046875,-86.42578125,70.80078125,-9.765625,383.7890625
1656409013361.2188,-42.96875,-69.3359375,98.14453125,4.8828125,-32.71484375
1656409013365.125,-73.2421875,-76.66015625,98.6328125,-11.23046875,-155.76171875
1656409013369.0312,-123.53515625,-104.98046875,76.171875,-52.734375,-35.15625
1656409013372.9375,-151.3671875,-122.55859375,64.453125,-62.98828125,-36.62109375
1656409013376.8438,-133.30078125,-115.234375,83.49609375,-39.0625,-99.12109375
1656409013380.75,-122.0703125,-98.14453125,96.19140625,-23.4375,-78.125
1656409013384.6562,-120.1171875,-91.30859375,80.078125,-32.2265625,-69.82421875
1656409013388.5625,-104.00390625,-91.30859375,65.91796875,-40.0390625,-86.42578125
1656409013392.4688,-111.81640625,-114.2578125,45.41015625,-41.9921875,-141.11328125
1656409013396.375,-124.0234375,-135.7421875,34.66796875,-29.78515625,-104.98046875
1656409013400.2812,-115.72265625,-120.60546875,59.5703125,-34.1796875,62.01171875
1656409013404.1875,-103.02734375,-105.95703125,80.078125,-37.59765625,120.60546875
1656409013408.0938,-76.66015625,-92.7734375,82.51953125,-28.3203125,-5.37109375
1656409013412,-62.01171875,-104.4921875,50.78125,-39.0625,-14.6484375
1656409013415.9062,-46.38671875,-120.1171875,29.78515625,-47.8515625,312.01171875
1656409013419.8125,-41.015625,-106.93359375,33.69140625,-41.50390625,200.1953125
1656409013423.7188,-37.59765625,-84.9609375,38.57421875,-20.01953125,-124.0234375
1656409013427.625,-68.84765625,-112.79296875,38.0859375,-43.45703125,-40.52734375
1656409013431.5312,-177.24609375,-187.5,-9.27734375,-138.671875,-32.2265625
1656409013435.4375,-240.72265625,-215.33203125,-43.9453125,-188.96484375,-91.796875
1656409013439.3438,-238.76953125,-184.08203125,-18.5546875,-173.33984375,-119.140625
1656409013443.25,-269.04296875,-164.55078125,-1.953125,-185.546875,-83.49609375
1656409013447.1562,-285.64453125,-145.99609375,20.5078125,-201.66015625,78.61328125
1656409013451.0625,-259.27734375,-110.3515625,64.453125,-182.12890625,144.04296875
1656409013454.9688,-272.4609375,-106.93359375,80.56640625,-177.734375,-46.38671875
1656409013458.875,-278.3203125,-107.421875,86.9140625,-167.96875,116.69921875
1656409013462.7812,-245.60546875,-82.03125,104.4921875,-143.06640625,338.8671875
1656409013466.6875,-241.2109375,-79.1015625,99.609375,-163.57421875,16.6015625
1656409013470.5938,-257.32421875,-91.796875,93.75,-177.734375,-95.703125
1656409013474.5,-299.31640625,-120.60546875,77.1484375,-201.66015625,-29.78515625
1656409013478.4062,-334.9609375,-142.08984375,49.31640625,-249.0234375,-68.84765625
1656409013482.3125,-324.21875,-112.79296875,65.91796875,-229.98046875,-118.65234375
1656409013486.2188,-288.0859375,-82.51953125,92.28515625,-205.078125,-46.38671875
1656409013490.125,-272.4609375,-77.1484375,101.5625,-194.3359375,-2.44140625
1656409013494.0312,-265.625,-81.54296875,103.515625,-186.5234375,26.3671875
1656409013497.9375,-250.9765625,-83.49609375,108.3984375,-207.51953125,45.41015625
1656409013501.8438,-296.875,-114.2578125,79.58984375,-250.48828125,20.01953125
1656409013505.75,-336.42578125,-152.83203125,57.6171875,-282.71484375,190.4296875
1656409013509.6562,-302.734375,-159.1796875,79.58984375,-270.99609375,88.8671875
1656409013513.5625,-258.30078125,-148.92578125,66.40625,-245.60546875,-101.5625
1656409013517.4688,-242.1875,-144.53125,1.953125,-228.02734375,72.265625
1656409013521.375,-253.90625,-151.3671875,-40.0390625,-237.79296875,126.953125
1656409013525.2812,-259.27734375,-160.64453125,-58.10546875,-248.53515625,-104.4921875
1656409013529.1875,-263.671875,-166.9921875,-67.3828125,-226.07421875,-143.5546875
1656409013533.0938,-258.7890625,-162.109375,-66.89453125,-205.56640625,-36.1328125
1656409013537,-262.6953125,-158.69140625,-70.3125,-203.61328125,-10.25390625
1656409013540.9062,-255.859375,-170.8984375,-102.05078125,-202.1484375,-2.44140625
1656409013544.8125,-260.25390625,-188.4765625,-127.44140625,-216.796875,-67.87109375
1656409013548.7188,-289.55078125,-196.2890625,-127.9296875,-214.35546875,134.765625
1656409013552.625,-270.99609375,-175.29296875,-109.375,-180.17578125,303.22265625
1656409013556.5312,-233.3984375,-153.3203125,-83.0078125,-152.83203125,23.92578125
1656409013560.4375,-206.0546875,-145.5078125,-53.7109375,-144.53125,-71.2890625
1656409013564.3438,-192.3828125,-133.30078125,-18.5546875,-156.25,-36.62109375
1656409013568.25,-156.73828125,-123.53515625,1.46484375,-136.23046875,-59.08203125
1656409013572.1562,-119.62890625,-102.05078125,25.87890625,-87.40234375,-86.9140625
1656409013576.0625,-118.65234375,-95.703125,42.96875,-92.7734375,29.78515625
1656409013579.9688,-159.66796875,-117.67578125,32.2265625,-137.20703125,156.73828125
1656409013583.875,-198.2421875,-130.37109375,13.671875,-155.2734375,13.671875
1656409013587.7812,-198.73046875,-143.06640625,-1.953125,-151.85546875,-80.078125
1656409013591.6875,-168.45703125,-147.94921875,-3.90625,-138.671875,107.91015625
1656409013595.5938,-162.109375,-152.83203125,-8.7890625,-130.859375,345.703125
1656409013599.5,-154.296875,-135.25390625,6.8359375,-110.3515625,131.8359375
1656409013603.4062,-133.30078125,-104.00390625,50.78125,-79.58984375,-144.04296875
1656409013607.3125,-119.62890625,-94.7265625,74.70703125,-50.29296875,-63.96484375
1656409013611.2188,-100.09765625,-81.0546875,77.63671875,-20.5078125,-15.13671875
1656409013615.125,-69.3359375,-79.58984375,55.6640625,-22.4609375,-96.19140625
1656409013619.0312,-44.921875,-82.03125,36.1328125,-40.0390625,-106.93359375
1656409013622.9375,-51.26953125,-83.984375,19.53125,-56.15234375,-45.8984375
1656409013626.8438,-91.796875,-106.93359375,-18.06640625,-87.40234375,-71.2890625
1656409013630.75,-97.65625,-123.046875,-39.0625,-91.796875,-125
1656409013634.6562,-95.21484375,-121.58203125,-47.36328125,-70.80078125,-46.38671875
1656409013638.5625,-113.28125,-125,-58.10546875,-79.1015625,273.92578125
1656409013642.4688,-131.8359375,-137.6953125,-51.7578125,-88.37890625,378.90625
1656409013646.375,-131.8359375,-135.7421875,-33.69140625,-79.1015625,-15.13671875
1656409013650.2812,-90.33203125,-105.46875,-6.8359375,-53.22265625,-151.3671875
1656409013654.1875,-76.171875,-81.54296875,1.953125,-34.66796875,-63.96484375
1656409013658.0938,-89.35546875,-76.171875,-1.46484375,-30.2734375,-50.78125
1656409013662,-91.796875,-92.7734375,-9.27734375,-41.50390625,-89.84375
1656409013665.9062,-148.92578125,-142.08984375,-62.01171875,-104.98046875,-56.640625
1656409013669.8125,-191.40625,-184.08203125,-114.74609375,-166.9921875,-19.04296875
1656409013673.7188,-152.34375,-169.43359375,-110.83984375,-145.01953125,-41.9921875
1656409013677.625,-100.5859375,-136.71875,-88.37890625,-97.16796875,-63.4765625
1656409013681.5312,-88.8671875,-123.53515625,-74.21875,-87.890625,91.796875
1656409013685.4375,-95.21484375,-126.953125,-62.5,-105.95703125,295.41015625
1656409013689.3438,-62.01171875,-116.69921875,-48.828125,-93.75,131.34765625
1656409013693.25,-28.3203125,-100.09765625,-34.1796875,-52.24609375,-38.57421875
1656409013697.1562,-70.80078125,-126.953125,-54.19921875,-69.82421875,66.89453125
1656409013701.0625,-128.41796875,-153.80859375,-77.63671875,-107.421875,166.50390625
1656409013704.9688,-143.06640625,-147.4609375,-76.171875,-97.65625,-5.37109375
1656409013708.875,-168.45703125,-150.87890625,-71.2890625,-104.98046875,-120.60546875
1656409013712.7812,-199.21875,-157.71484375,-69.3359375,-113.76953125,-54.6875
1656409013716.6875,-198.73046875,-160.64453125,-62.98828125,-78.61328125,-4.39453125
1656409013720.5938,-195.80078125,-158.203125,-49.8046875,-64.453125,-79.1015625
1656409013724.5,-203.125,-149.90234375,-45.41015625,-89.84375,-123.53515625
1656409013728.4062,-201.171875,-147.4609375,-51.7578125,-110.83984375,7.8125
1656409013732.3125,-192.87109375,-149.4140625,-51.26953125,-89.84375,102.5390625
1656409013736.2188,-165.0390625,-144.53125,-48.828125,-77.1484375,43.9453125
1656409013740.125,-170.8984375,-142.578125,-59.08203125,-98.6328125,-72.75390625
1656409013744.0312,-182.12890625,-152.34375,-63.4765625,-105.95703125,97.65625
1656409013747.9375,-161.1328125,-154.78515625,-59.08203125,-109.86328125,147.4609375
1656409013751.8438,-130.859375,-157.2265625,-57.12890625,-76.171875,-31.73828125
1656409013755.75,-133.30078125,-164.55078125,-59.08203125,-44.921875,-47.36328125
1656409013759.6562,-140.13671875,-160.15625,-61.03515625,-76.171875,-8.30078125
1656409013763.5625,-145.5078125,-155.76171875,-71.2890625,-103.02734375,-35.64453125
1656409013767.4688,-144.53125,-166.50390625,-90.8203125,-108.88671875,-105.46875
1656409013771.375,-131.34765625,-183.10546875,-93.26171875,-103.515625,-43.45703125
1656409013775.2812,-117.67578125,-188.4765625,-101.07421875,-88.8671875,93.26171875
1656409013779.1875,-127.44140625,-186.5234375,-113.76953125,-82.51953125,80.078125
1656409013783.0938,-148.4375,-184.08203125,-115.234375,-100.09765625,-69.82421875
1656409013787,-160.64453125,-181.15234375,-113.76953125,-112.3046875,-54.19921875
1656409013790.9062,-156.73828125,-179.19921875,-114.2578125,-81.0546875,189.94140625
1656409013794.8125,-146.484375,-169.43359375,-120.60546875,-68.359375,59.08203125
1656409013798.7188,-160.15625,-166.015625,-115.72265625,-76.171875,-131.8359375
1656409013802.625,-167.48046875,-166.50390625,-108.3984375,-88.37890625,-57.12890625
1656409013806.5312,-154.78515625,-161.62109375,-104.00390625,-98.14453125,-43.45703125
1656409013810.4375,-121.58203125,-153.80859375,-101.5625,-70.80078125,41.9921875
1656409013814.3438,-114.2578125,-152.83203125,-116.2109375,-52.24609375,14.6484375
1656409013818.25,-144.04296875,-167.96875,-121.58203125,-68.84765625,62.5
1656409013822.1562,-146.97265625,-166.9921875,-108.88671875,-82.03125,158.203125
1656409013826.0625,-139.6484375,-160.15625,-113.28125,-78.125,-18.06640625
1656409013829.9688,-110.83984375,-157.2265625,-122.55859375,-56.640625,-117.1875
1656409013833.875,-109.375,-150.390625,-117.67578125,-46.38671875,104.4921875
1656409013837.7812,-110.3515625,-145.01953125,-114.2578125,-44.921875,193.359375
1656409013841.6875,-91.30859375,-142.08984375,-116.2109375,-47.36328125,-90.33203125
1656409013845.5938,-86.42578125,-136.23046875,-114.2578125,-56.640625,-89.84375
1656409013849.5,-74.70703125,-121.58203125,-109.375,-54.19921875,-48.828125
1656409013853.4062,-71.77734375,-121.58203125,-103.515625,-57.12890625,-77.63671875
1656409013857.3125,-78.61328125,-132.32421875,-96.6796875,-59.5703125,-77.1484375
1656409013861.2188,-90.33203125,-130.37109375,-94.23828125,-59.08203125,-40.52734375
1656409013865.125,-106.93359375,-120.60546875,-96.19140625,-72.75390625,-8.30078125
1656409013869.0312,-115.72265625,-118.65234375,-93.75,-76.171875,-7.32421875
1656409013872.9375,-123.046875,-118.1640625,-84.47265625,-54.19921875,60.05859375
1656409013876.8438,-116.69921875,-109.375,-83.984375,-41.9921875,160.64453125
1656409013880.75,-92.28515625,-99.609375,-79.1015625,-31.25,375.48828125
1656409013884.6562,-80.56640625,-90.8203125,-67.87109375,-35.15625,219.23828125
1656409013888.5625,-88.8671875,-93.75,-64.94140625,-61.5234375,-112.79296875
1656409013892.4688,-70.3125,-98.14453125,-56.15234375,-62.01171875,-10.25390625
1656409013896.375,-49.31640625,-91.796875,-47.36328125,-42.96875,41.50390625
1656409013900.2812,-70.3125,-85.44921875,-40.0390625,-41.015625,-85.9375
1656409013904.1875,-87.890625,-91.796875,-38.0859375,-61.5234375,-115.72265625
1656409013908.0938,-123.046875,-100.5859375,-34.66796875,-85.44921875,-44.43359375
1656409013912,-136.23046875,-103.02734375,-37.109375,-78.61328125,-29.78515625
1656409013915.9062,-123.53515625,-104.00390625,-41.50390625,-63.96484375,33.69140625
1656409013919.8125,-105.46875,-84.9609375,-24.90234375,-62.5,56.15234375
1656409013923.7188,-79.58984375,-71.77734375,-2.44140625,-58.59375,168.9453125
1656409013927.625,-108.3984375,-84.47265625,0.9765625,-72.75390625,272.4609375
1656409013931.5312,-105.46875,-102.05078125,-21.97265625,-83.984375,-22.94921875
1656409013935.4375,-77.63671875,-116.69921875,-35.64453125,-104.4921875,-121.09375
1656409013939.3438,-68.84765625,-117.67578125,-31.25,-128.90625,-0.9765625
1656409013943.25,-83.0078125,-107.91015625,-6.8359375,-127.9296875,-33.203125
1656409013947.1562,-97.65625,-110.83984375,16.11328125,-104.98046875,-121.58203125
1656409013951.0625,-94.23828125,-113.28125,21.484375,-99.12109375,-40.52734375
1656409013954.9688,-85.44921875,-111.328125,11.23046875,-119.140625,21.484375
1656409013958.875,-93.26171875,-110.83984375,2.9296875,-116.2109375,-41.50390625
1656409013962.7812,-81.0546875,-111.81640625,2.9296875,-130.859375,-87.40234375
1656409013966.6875,-60.546875,-105.95703125,-5.859375,-113.28125,23.4375
1656409013970.5938,-68.84765625,-99.12109375,-7.8125,-88.8671875,260.25390625
1656409013974.5,-62.98828125,-95.21484375,-3.41796875,-94.7265625,128.90625
1656409013978.4062,-73.2421875,-96.19140625,-7.8125,-78.125,-92.7734375
1656409013982.3125,-63.96484375,-79.1015625,7.8125,-62.98828125,-18.06640625
1656409013986.2188,-50.78125,-63.96484375,23.4375,-81.0546875,5.37109375
1656409013990.125,-80.078125,-78.125,11.71875,-111.328125,-104.00390625
1656409013994.0312,-92.28515625,-108.88671875,-12.20703125,-123.53515625,-127.9296875
1656409013997.9375,-79.58984375,-124.0234375,-27.34375,-107.91015625,61.5234375
1656409014001.8438,-96.6796875,-116.69921875,-31.73828125,-115.234375,96.19140625
1656409014005.75,-127.44140625,-126.953125,-35.15625,-137.20703125,-111.81640625
1656409014009.6562,-125.48828125,-140.13671875,-36.62109375,-125.48828125,-112.3046875
1656409014013.5625,-121.58203125,-146.484375,-39.55078125,-112.3046875,251.953125
1656409014017.4688,-100.5859375,-147.4609375,-36.62109375,-106.93359375,344.23828125
1656409014021.375,-81.0546875,-140.625,-36.62109375,-111.81640625,-71.77734375
1656409014025.2812,-77.1484375,-135.7421875,-35.64453125,-107.91015625,-121.58203125
1656409014029.1875,-58.59375,-133.7890625,-29.78515625,-99.609375,-56.640625
1656409014033.0938,-42.96875,-134.27734375,-22.4609375,-92.7734375,-78.125
1656409014037,-16.11328125,-121.09375,0.9765625,-67.87109375,-125.48828125
1656409014040.9062,-26.85546875,-136.71875,-5.37109375,-60.546875,-91.796875
1656409014044.8125,-114.74609375,-187.01171875,-52.24609375,-119.62890625,79.58984375
1656409014048.7188,-157.71484375,-193.84765625,-76.66015625,-147.94921875,-13.671875
1656409014052.625,-153.3203125,-182.6171875,-66.89453125,-140.625,-123.53515625
1656409014056.5312,-154.296875,-181.640625,-49.8046875,-150.87890625,12.20703125
1656409014060.4375,-158.69140625,-181.15234375,-47.8515625,-142.578125,348.6328125
1656409014064.3438,-127.44140625,-167.48046875,-53.7109375,-144.53125,223.6328125
1656409014068.25,-84.47265625,-153.80859375,-49.31640625,-131.8359375,-127.9296875
1656409014072.1562,-62.01171875,-145.5078125,-30.2734375,-89.84375,-3.90625
1656409014076.0625,-46.38671875,-127.9296875,-9.765625,-65.4296875,30.2734375
1656409014079.9688,-32.2265625,-107.421875,11.23046875,-58.10546875,-64.94140625
1656409014083.875,-27.34375,-86.42578125,32.2265625,-70.80078125,-111.328125
1656409014087.7812,-11.23046875,-75.68359375,36.62109375,-70.80078125,-64.94140625
1656409014091.6875,25.87890625,-73.2421875,35.15625,-47.36328125,-2.9296875
1656409014095.5938,43.9453125,-67.87109375,51.7578125,-19.04296875,-53.22265625
1656409014099.5,21.484375,-73.2421875,49.8046875,-35.64453125,-92.28515625
1656409014103.4062,21.97265625,-67.87109375,43.45703125,-51.26953125,79.1015625
1656409014107.3125,30.2734375,-63.96484375,48.33984375,-32.2265625,206.54296875
1656409014111.2188,23.4375,-75.68359375,49.31640625,-26.3671875,107.421875
1656409014115.125,4.39453125,-73.73046875,50.29296875,-28.3203125,-44.921875
1656409014119.0312,9.27734375,-47.8515625,63.4765625,-10.25390625,126.46484375
1656409014122.9375,33.69140625,-28.3203125,80.078125,20.5078125,312.98828125
1656409014126.8438,35.15625,-20.99609375,86.42578125,15.13671875,11.71875
1656409014130.75,52.24609375,-6.8359375,90.33203125,4.8828125,-100.5859375
1656409014134.6562,68.84765625,-16.11328125,63.4765625,2.44140625,-36.1328125
1656409014138.5625,67.87109375,-48.33984375,25.390625,-10.7421875,-58.10546875
1656409014142.4688,43.9453125,-71.2890625,8.30078125,-57.6171875,-139.6484375
1656409014146.375,3.41796875,-92.7734375,-0.48828125,-92.28515625,-101.07421875
1656409014150.2812,1.953125,-103.02734375,-5.859375,-55.17578125,104.4921875
1656409014154.1875,5.859375,-96.6796875,-2.9296875,-44.43359375,101.5625
1656409014158.0938,22.4609375,-93.26171875,7.32421875,-60.05859375,-48.33984375
1656409014162,33.69140625,-93.75,7.8125,-57.6171875,-13.671875
1656409014165.9062,31.73828125,-90.33203125,5.859375,-69.3359375,285.15625
1656409014169.8125,68.359375,-67.3828125,20.99609375,-53.22265625,182.6171875
1656409014173.7188,85.44921875,-52.24609375,25.390625,-17.578125,-148.4375
1656409014177.625,62.01171875,-59.5703125,15.625,-24.90234375,-88.8671875
1656409014181.5312,47.8515625,-71.2890625,2.9296875,-58.10546875,-55.6640625
1656409014185.4375,47.8515625,-74.21875,-10.25390625,-62.5,-120.1171875
1656409014189.3438,67.87109375,-59.08203125,-2.44140625,-43.9453125,-97.65625
1656409014193.25,58.10546875,-60.546875,-15.13671875,-54.6875,-26.3671875
1656409014197.1562,32.2265625,-76.66015625,-35.64453125,-80.078125,77.1484375
1656409014201.0625,-5.859375,-81.54296875,-32.71484375,-108.88671875,57.6171875
1656409014204.9688,-11.71875,-76.171875,-25.87890625,-134.765625,-142.578125
1656409014208.875,25.390625,-52.24609375,-9.27734375,-107.421875,72.265625
1656409014212.7812,34.1796875,-30.76171875,2.44140625,-99.609375,229.98046875
1656409014216.6875,29.78515625,-29.296875,-1.46484375,-133.7890625,-97.16796875
1656409014220.5938,16.11328125,-36.62109375,-4.39453125,-145.99609375,-79.58984375
1656409014224.5,-14.6484375,-33.69140625,1.46484375,-171.875,48.828125
1656409014228.4062,-39.55078125,-33.203125,-1.953125,-212.40234375,-47.8515625
1656409014232.3125,-41.9921875,-33.203125,-7.32421875,-245.60546875,-133.30078125
1656409014236.2188,-35.15625,-29.296875,-2.9296875,-246.09375,-50.29296875
1656409014240.125,-27.34375,-39.0625,-3.41796875,-254.8828125,-28.3203125
1656409014244.0312,6.8359375,-42.96875,-0.9765625,-271.97265625,34.1796875
1656409014247.9375,19.53125,-32.2265625,9.765625,-272.94921875,46.875
1656409014251.8438,8.30078125,-26.85546875,16.11328125,-274.90234375,-0.9765625
1656409014255.75,25.390625,-16.11328125,31.73828125,-252.44140625,225.5859375
1656409014259.6562,28.80859375,-9.765625,44.43359375,-244.62890625,89.35546875
1656409014263.5625,-1.953125,-25.87890625,35.15625,-301.26953125,-146.97265625
1656409014267.4688,-9.27734375,-35.64453125,27.83203125,-336.9140625,-63.96484375
1656409014271.375,-2.9296875,-36.62109375,25.390625,-319.82421875,-47.36328125
1656409014275.2812,8.30078125,-36.62109375,16.11328125,-314.453125,-122.0703125
1656409014279.1875,12.6953125,-29.296875,1.46484375,-329.58984375,-103.02734375
1656409014283.0938,-31.73828125,-58.59375,-38.57421875,-369.62890625,58.59375
1656409014287,-91.796875,-106.4453125,-87.40234375,-405.76171875,34.66796875
1656409014290.9062,-97.65625,-123.046875,-111.81640625,-435.546875,-21.97265625
1656409014294.8125,-72.75390625,-125.48828125,-118.65234375,-429.19921875,48.33984375
1656409014298.7188,-73.2421875,-127.44140625,-121.09375,-421.38671875,176.7578125
1656409014302.625,-100.5859375,-127.44140625,-119.140625,-473.14453125,197.265625
1656409014306.5312,-107.91015625,-125.9765625,-108.88671875,-471.6796875,-75.1953125
1656409014310.4375,-91.796875,-133.30078125,-106.4453125,-435.546875,-150.87890625
1656409014314.3438,-84.9609375,-138.671875,-106.93359375,-445.80078125,-75.1953125
1656409014318.25,-130.859375,-139.6484375,-107.91015625,-475.5859375,-39.0625
1656409014322.1562,-166.9921875,-148.92578125,-107.421875,-506.34765625,-127.44140625
1656409014326.0625,-150.390625,-157.2265625,-106.93359375,-510.25390625,-112.3046875
1656409014329.9688,-130.859375,-163.57421875,-121.58203125,-487.3046875,-18.06640625
1656409014333.875,-106.4453125,-153.80859375,-125.9765625,-435.05859375,-35.64453125
1656409014337.7812,-102.5390625,-138.671875,-109.86328125,-398.92578125,21.484375
1656409014341.6875,-123.046875,-142.578125,-99.12109375,-419.921875,65.91796875
1656409014345.5938,-153.80859375,-149.90234375,-104.98046875,-451.66015625,283.69140625
1656409014349.5,-182.12890625,-147.4609375,-114.74609375,-441.89453125,222.65625
1656409014353.4062,-152.34375,-137.20703125,-105.46875,-422.8515625,-81.0546875
1656409014357.3125,-129.8828125,-139.6484375,-90.33203125,-413.0859375,-20.99609375
1656409014361.2188,-128.90625,-147.4609375,-94.23828125,-415.52734375,-72.265625
1656409014365.125,-93.26171875,-143.06640625,-93.75,-414.0625,-154.78515625
1656409014369.0312,-81.54296875,-136.23046875,-87.890625,-424.8046875,-132.32421875
1656409014372.9375,-88.37890625,-142.578125,-89.35546875,-448.73046875,-62.5
1656409014376.8438,-75.1953125,-148.92578125,-80.56640625,-445.3125,-48.828125
1656409014380.75,-78.125,-146.97265625,-67.3828125,-456.0546875,-88.8671875
1656409014384.6562,-85.9375,-156.25,-73.73046875,-485.3515625,-48.33984375
1656409014388.5625,-102.5390625,-174.31640625,-87.40234375,-486.81640625,150.87890625
1656409014392.4688,-120.60546875,-181.640625,-98.6328125,-467.28515625,284.66796875
1656409014396.375,-127.44140625,-179.6875,-107.421875,-474.609375,66.89453125
1656409014400.2812,-142.08984375,-176.7578125,-108.88671875,-490.234375,-39.55078125
1656409014404.1875,-139.6484375,-169.43359375,-112.3046875,-493.65234375,37.59765625
1656409014408.0938,-126.46484375,-163.0859375,-101.5625,-496.09375,14.16015625
1656409014412,-144.04296875,-162.109375,-84.47265625,-511.23046875,-108.3984375
1656409014415.9062,-158.69140625,-170.8984375,-88.8671875,-504.39453125,-92.28515625
1656409014419.8125,-135.25390625,-175.78125,-91.30859375,-467.7734375,-29.78515625
1656409014423.7188,-97.65625,-159.66796875,-76.171875,-427.24609375,-68.359375
1656409014427.625,-59.5703125,-140.625,-77.63671875,-416.50390625,-132.32421875
1656409014431.5312,-38.0859375,-138.671875,-90.8203125,-415.0390625,15.625
1656409014435.4375,-35.15625,-145.5078125,-96.6796875,-395.5078125,247.0703125
1656409014439.3438,-14.6484375,-140.625,-102.5390625,-389.6484375,62.5
1656409014443.25,-12.6953125,-132.32421875,-100.09765625,-360.83984375,-144.53125
1656409014447.1562,-32.71484375,-130.859375,-107.91015625,-346.19140625,-11.23046875
1656409014451.0625,-34.1796875,-124.0234375,-116.2109375,-346.19140625,122.55859375
1656409014454.9688,-20.99609375,-116.69921875,-111.81640625,-339.84375,55.6640625
1656409014458.875,-12.6953125,-113.76953125,-98.6328125,-334.47265625,-89.35546875
1656409014462.7812,-35.64453125,-112.79296875,-89.84375,-338.37890625,9.765625
1656409014466.6875,-55.17578125,-114.2578125,-96.6796875,-368.65234375,44.43359375
1656409014470.5938,-35.64453125,-104.98046875,-86.42578125,-355.95703125,-108.3984375
1656409014474.5,-2.44140625,-84.9609375,-55.6640625,-305.17578125,-106.93359375
1656409014478.4062,14.16015625,-70.3125,-33.69140625,-303.22265625,144.53125
1656409014482.3125,5.37109375,-63.96484375,-20.99609375,-301.7578125,255.859375
1656409014486.2188,-3.90625,-63.4765625,-10.7421875,-293.9453125,-26.85546875
1656409014490.125,25.87890625,-66.40625,-9.27734375,-296.38671875,-141.11328125
1656409014494.0312,45.8984375,-80.56640625,-28.80859375,-290.0390625,60.05859375
1656409014497.9375,-1.953125,-103.02734375,-52.734375,-327.63671875,78.125
1656409014501.8438,-42.48046875,-122.55859375,-68.84765625,-371.09375,-145.01953125
1656409014505.75,-11.71875,-119.140625,-77.1484375,-351.5625,-96.6796875
1656409014509.6562,24.90234375,-106.4453125,-64.453125,-333.984375,-37.109375
1656409014513.5625,18.5546875,-104.00390625,-43.45703125,-328.125,-24.4140625
1656409014517.4688,13.671875,-100.5859375,-40.52734375,-304.6875,-48.33984375
1656409014521.375,20.01953125,-96.19140625,-46.875,-289.0625,-65.4296875
1656409014525.2812,20.99609375,-92.28515625,-51.26953125,-297.36328125,245.60546875
1656409014529.1875,30.76171875,-93.75,-91.796875,-304.19921875,254.8828125
1656409014533.0938,39.0625,-94.7265625,-136.71875,-295.41015625,-71.2890625
1656409014537,64.453125,-85.44921875,-143.5546875,-283.203125,-32.71484375
1656409014540.9062,77.1484375,-84.9609375,-149.4140625,-268.06640625,104.4921875
1656409014544.8125,45.41015625,-92.28515625,-158.69140625,-283.203125,-56.640625
1656409014548.7188,39.0625,-93.26171875,-156.25,-293.9453125,-145.01953125
1656409014552.625,31.73828125,-96.6796875,-157.71484375,-268.5546875,-51.26953125
1656409014556.5312,4.8828125,-110.3515625,-165.0390625,-261.23046875,-18.5546875
1656409014560.4375,-19.53125,-121.09375,-163.57421875,-259.27734375,-84.9609375
1656409014564.3438,-43.9453125,-115.234375,-148.92578125,-262.6953125,-112.3046875
1656409014568.25,-38.0859375,-104.98046875,-133.7890625,-258.30078125,-30.76171875
1656409014572.1562,-37.109375,-96.19140625,-129.39453125,-240.72265625,34.1796875
1656409014576.0625,-42.96875,-80.078125,-129.39453125,-225.09765625,-1.953125
1656409014579.9688,-29.296875,-62.98828125,-124.51171875,-229.4921875,-0.48828125
1656409014583.875,-32.71484375,-73.73046875,-130.37109375,-231.93359375,184.08203125
1656409014587.7812,-33.69140625,-81.0546875,-131.34765625,-212.40234375,313.4765625
1656409014591.6875,-15.625,-66.89453125,-119.140625,-201.171875,36.62109375
1656409014595.5938,2.44140625,-50.78125,-109.375,-177.734375,-81.0546875
1656409014599.5,15.625,-30.76171875,-88.37890625,-132.32421875,4.8828125
1656409014603.4062,21.97265625,-17.08984375,-62.01171875,-130.859375,-41.9921875
1656409014607.3125,25.390625,-17.08984375,-59.08203125,-148.92578125,-72.75390625
1656409014611.2188,29.296875,-18.06640625,-63.96484375,-136.71875,4.39453125
1656409014615.125,18.06640625,-20.01953125,-72.265625,-144.53125,14.16015625
1656409014619.0312,-18.06640625,-29.296875,-84.47265625,-172.8515625,39.0625
1656409014622.9375,-34.66796875,-40.0390625,-94.7265625,-194.82421875,20.01953125
1656409014626.8438,-50.29296875,-67.3828125,-126.953125,-214.84375,-3.41796875
1656409014630.75,-62.98828125,-87.40234375,-145.5078125,-209.47265625,346.19140625
1656409014634.6562,-62.5,-83.984375,-125.9765625,-217.28515625,291.50390625
1656409014638.5625,-59.5703125,-78.125,-114.74609375,-227.5390625,-80.078125
1656409014642.4688,-51.7578125,-78.61328125,-115.234375,-233.3984375,-56.15234375
1656409014646.375,-48.33984375,-73.73046875,-96.19140625,-245.1171875,-51.7578125
1656409014650.2812,-30.2734375,-62.5,-76.66015625,-204.58984375,-134.765625
1656409014654.1875,2.44140625,-52.734375,-68.84765625,-175.78125,-129.39453125
1656409014658.0938,2.9296875,-40.52734375,-57.12890625,-191.40625,-17.08984375
1656409014662,-25.87890625,-39.55078125,-39.55078125,-201.171875,-0.48828125
1656409014665.9062,-28.3203125,-34.66796875,-26.85546875,-192.3828125,-78.61328125
1656409014669.8125,2.44140625,-20.99609375,-19.53125,-152.34375,21.484375
1656409014673.7188,44.921875,-5.859375,-3.90625,-44.921875,186.03515625
1656409014677.625,73.2421875,8.7890625,17.578125,37.109375,112.3046875
1656409014681.5312,77.63671875,13.671875,22.94921875,63.4765625,-46.38671875
1656409014685.4375,80.56640625,15.13671875,24.4140625,97.65625,-77.1484375
1656409014689.3438,70.3125,14.6484375,19.04296875,124.0234375,214.35546875
1656409014693.25,65.4296875,12.20703125,19.53125,142.08984375,325.1953125
1656409014697.1562,72.75390625,13.671875,32.2265625,132.8125,-40.0390625
1656409014701.0625,66.40625,6.8359375,27.83203125,109.375,-87.890625
1656409014704.9688,26.85546875,-9.765625,10.25390625,51.26953125,-21.484375
1656409014708.875,2.9296875,-25.390625,-12.6953125,-13.18359375,-77.1484375
1656409014712.7812,-14.6484375,-30.76171875,-16.6015625,-30.76171875,-44.43359375
1656409014716.6875,-28.80859375,-31.25,-12.6953125,-50.78125,111.328125
1656409014720.5938,-43.9453125,-42.48046875,-27.34375,-120.60546875,91.30859375
1656409014724.5,-57.6171875,-55.17578125,-41.015625,-153.3203125,-82.03125
1656409014728.4062,-44.921875,-61.03515625,-58.10546875,-161.1328125,-140.625
1656409014732.3125,-41.015625,-64.453125,-77.63671875,-179.6875,-6.34765625
1656409014736.2188,-62.01171875,-66.40625,-77.1484375,-173.33984375,153.80859375
1656409014740.125,-77.1484375,-70.80078125,-67.3828125,-172.8515625,-43.9453125
1656409014744.0312,-91.796875,-69.82421875,-54.6875,-159.66796875,-179.6875
1656409014747.9375,-82.03125,-69.82421875,-56.15234375,-116.69921875,137.6953125
1656409014751.8438,-63.96484375,-75.68359375,-62.01171875,-101.07421875,291.9921875
1656409014755.75,-89.35546875,-80.56640625,-59.5703125,-107.421875,25.87890625
1656409014759.6562,-135.7421875,-73.2421875,-45.41015625,-117.67578125,-9.765625
1656409014763.5625,-127.9296875,-56.640625,-27.83203125,-100.09765625,263.18359375
1656409014767.4688,-96.19140625,-49.8046875,-17.578125,-63.4765625,292.48046875
1656409014771.375,-101.07421875,-56.15234375,-22.4609375,-56.15234375,-95.21484375
1656409014775.2812,-115.234375,-60.05859375,-17.08984375,-26.3671875,-113.28125
1656409014779.1875,-112.79296875,-56.15234375,5.859375,-0.48828125,0
1656409014783.0938,-114.74609375,-59.5703125,34.1796875,0.48828125,-51.26953125
1656409014787,-95.703125,-62.98828125,49.8046875,23.4375,-116.2109375
1656409014790.9062,-63.4765625,-62.5,53.7109375,47.36328125,-87.890625
1656409014794.8125,-67.87109375,-68.359375,55.17578125,69.3359375,-32.71484375
1656409014798.7188,-76.66015625,-76.66015625,53.22265625,83.0078125,-63.4765625
1656409014802.625,-71.77734375,-80.078125,51.7578125,87.890625,-102.05078125
1656409014806.5312,-58.10546875,-82.51953125,50.78125,107.91015625,29.296875
1656409014810.4375,-65.91796875,-91.796875,41.9921875,118.1640625,324.21875
1656409014814.3438,-79.1015625,-110.83984375,8.30078125,109.86328125,218.26171875
1656409014818.25,-90.8203125,-123.53515625,-17.578125,115.234375,-65.91796875
1656409014822.1562,-118.65234375,-133.7890625,-25.390625,110.83984375,42.48046875
1656409014826.0625,-138.671875,-139.16015625,-30.76171875,103.515625,171.38671875
1656409014829.9688,-139.16015625,-129.8828125,-28.80859375,124.51171875,24.4140625
1656409014833.875,-137.6953125,-124.0234375,-30.76171875,141.11328125,-92.7734375
1656409014837.7812,-148.4375,-119.140625,-36.62109375,161.62109375,-56.640625
1656409014841.6875,-145.99609375,-119.62890625,-36.62109375,183.10546875,-37.59765625
1656409014845.5938,-156.73828125,-125.48828125,-34.1796875,191.89453125,-117.1875
1656409014849.5,-167.96875,-127.44140625,-34.66796875,202.1484375,-120.1171875
1656409014853.4062,-157.71484375,-123.046875,-30.2734375,209.47265625,101.5625
1656409014857.3125,-140.13671875,-113.76953125,-26.3671875,225.5859375,127.9296875
1656409014861.2188,-117.67578125,-110.83984375,-21.97265625,240.72265625,-60.546875
1656409014865.125,-110.83984375,-107.421875,-15.13671875,238.28125,-59.5703125
1656409014869.0312,-102.5390625,-104.00390625,-15.625,262.6953125,181.640625
1656409014872.9375,-74.21875,-111.328125,-17.578125,294.921875,277.34375
1656409014876.8438,-69.3359375,-112.79296875,-25.87890625,295.8984375,-4.39453125
1656409014880.75,-89.35546875,-102.5390625,-32.71484375,286.62109375,-74.21875
1656409014884.6562,-97.65625,-99.609375,-29.296875,274.4140625,-57.6171875
1656409014888.5625,-104.4921875,-108.88671875,-32.2265625,289.55078125,-91.796875
1656409014892.4688,-95.21484375,-106.4453125,-40.0390625,310.546875,-109.375
1656409014896.375,-80.56640625,-102.5390625,-38.0859375,302.24609375,-30.76171875
1656409014900.2812,-84.9609375,-106.4453125,-36.1328125,315.4296875,91.30859375
1656409014904.1875,-54.19921875,-101.07421875,-40.0390625,331.0546875,112.3046875
1656409014908.0938,-22.94921875,-91.30859375,-47.36328125,349.609375,3.41796875
1656409014912,-25.390625,-92.28515625,-37.109375,380.37109375,-13.18359375
1656409014915.9062,-36.1328125,-89.84375,-23.4375,382.32421875,216.796875
1656409014919.8125,-45.41015625,-88.37890625,-22.94921875,359.375,66.89453125
1656409014923.7188,-43.9453125,-108.3984375,-30.2734375,359.86328125,-72.265625
1656409014927.625,-46.38671875,-116.69921875,-36.62109375,385.25390625,79.58984375
1656409014931.5312,-59.08203125,-118.1640625,-44.921875,412.109375,83.0078125
1656409014935.4375,-75.68359375,-129.8828125,-57.6171875,394.04296875,-55.6640625
1656409014939.3438,-117.1875,-146.484375,-55.17578125,361.81640625,-90.33203125
1656409014943.25,-140.625,-155.76171875,-55.6640625,342.28515625,-39.55078125
1656409014947.1562,-134.27734375,-155.2734375,-61.5234375,335.9375,18.06640625
1656409014951.0625,-135.25390625,-159.66796875,-70.80078125,359.375,12.20703125
1656409014954.9688,-136.23046875,-154.296875,-80.078125,359.86328125,-110.83984375
1656409014958.875,-155.76171875,-159.1796875,-82.03125,333.0078125,116.69921875
1656409014962.7812,-157.71484375,-165.0390625,-77.63671875,322.75390625,309.5703125
1656409014966.6875,-149.4140625,-159.1796875,-74.70703125,314.94140625,-64.453125
1656409014970.5938,-169.43359375,-153.80859375,-75.1953125,320.80078125,-129.39453125
1656409014974.5,-154.78515625,-141.6015625,-67.3828125,333.0078125,-19.53125
1656409014978.4062,-131.8359375,-141.6015625,-57.6171875,313.4765625,-21.97265625
1656409014982.3125,-132.32421875,-150.87890625,-56.640625,297.8515625,-1.46484375
1656409014986.2188,-129.39453125,-151.3671875,-62.01171875,309.5703125,-9.27734375
1656409014990.125,-98.6328125,-145.01953125,-54.6875,331.54296875,73.73046875
1656409014994.0312,-69.82421875,-133.30078125,-40.52734375,353.02734375,156.73828125
1656409014997.9375,-56.640625,-119.62890625,-36.1328125,359.375,129.8828125
1656409015001.8438,-37.109375,-110.3515625,-30.2734375,354.4921875,55.6640625
1656409015005.75,-18.06640625,-103.515625,-26.3671875,344.7265625,218.75
1656409015009.6562,-36.1328125,-103.515625,-24.90234375,338.8671875,102.5390625
1656409015013.5625,-47.8515625,-112.79296875,-18.5546875,340.33203125,-157.71484375
1656409015017.4688,-37.59765625,-120.60546875,-15.13671875,354.4921875,-52.734375
1656409015021.375,-41.015625,-121.58203125,-12.20703125,360.83984375,-35.64453125
1656409015025.2812,-50.29296875,-123.53515625,-11.23046875,357.421875,-156.73828125
1656409015029.1875,-43.45703125,-126.953125,-21.97265625,349.12109375,-124.0234375
1656409015033.0938,-47.8515625,-128.41796875,-21.484375,353.02734375,9.765625
1656409015037,-42.96875,-128.90625,-12.20703125,355.46875,21.97265625
1656409015040.9062,-26.3671875,-117.67578125,-5.37109375,346.19140625,13.18359375
1656409015044.8125,-26.3671875,-108.88671875,2.44140625,329.58984375,-14.6484375
1656409015048.7188,-2.44140625,-105.95703125,7.32421875,329.1015625,168.9453125
1656409015052.625,18.06640625,-87.40234375,23.4375,371.09375,326.66015625
1656409015056.5312,5.37109375,-83.0078125,28.3203125,365.72265625,10.25390625
1656409015060.4375,-15.625,-105.95703125,20.99609375,314.453125,-146.97265625
1656409015064.3438,-38.0859375,-113.76953125,19.53125,295.8984375,-59.08203125
1656409015068.25,-49.8046875,-116.69921875,16.11328125,304.19921875,-76.66015625
1656409015072.1562,-50.29296875,-115.72265625,15.625,305.17578125,-131.34765625
1656409015076.0625,-41.9921875,-111.328125,15.625,306.15234375,-57.6171875
1656409015079.9688,-28.80859375,-108.88671875,12.6953125,306.640625,28.3203125
1656409015083.875,-22.4609375,-101.5625,20.99609375,289.0625,-38.0859375
1656409015087.7812,-42.96875,-109.375,30.76171875,267.578125,-70.3125
1656409015091.6875,-34.66796875,-114.74609375,27.83203125,252.9296875,69.82421875
1656409015095.5938,13.18359375,-111.328125,28.80859375,265.625,275.390625
1656409015099.5,3.41796875,-106.4453125,29.296875,284.66796875,170.41015625
1656409015103.4062,-11.71875,-102.05078125,21.484375,292.96875,-135.7421875
1656409015107.3125,-18.06640625,-105.95703125,1.46484375,298.828125,-55.17578125
1656409015111.2188,-33.69140625,-112.3046875,-12.20703125,284.1796875,61.03515625
1656409015115.125,-39.55078125,-120.1171875,-12.6953125,265.625,-59.08203125
1656409015119.0312,-39.0625,-134.765625,-10.7421875,254.8828125,-80.56640625
1656409015122.9375,-53.22265625,-147.4609375,-12.20703125,233.88671875,-62.01171875
1656409015126.8438,-55.17578125,-150.87890625,-28.80859375,211.9140625,-94.23828125
1656409015130.75,-19.53125,-145.99609375,-32.2265625,220.703125,-77.63671875
1656409015134.6562,0.9765625,-127.9296875,-15.13671875,248.046875,20.5078125
1656409015138.5625,-1.953125,-121.09375,-5.859375,242.1875,267.578125
1656409015142.4688,-43.9453125,-126.46484375,-0.9765625,209.9609375,311.5234375
1656409015146.375,-84.9609375,-124.0234375,-0.48828125,204.58984375,-77.63671875
1656409015150.2812,-85.44921875,-121.58203125,-6.34765625,227.5390625,-144.04296875
1656409015154.1875,-72.265625,-122.0703125,-5.859375,230.46875,-5.859375
1656409015158.0938,-55.17578125,-128.90625,-6.34765625,206.54296875,18.06640625
1656409015162,-59.5703125,-136.23046875,-8.7890625,187.98828125,-88.8671875
1656409015165.9062,-65.4296875,-129.39453125,-7.32421875,195.80078125,-95.21484375
1656409015169.8125,-60.05859375,-121.09375,-11.71875,207.03125,-16.6015625
1656409015173.7188,-46.38671875,-112.79296875,-4.39453125,229.98046875,-24.4140625
1656409015177.625,-44.43359375,-113.76953125,0.9765625,219.23828125,-117.67578125
1656409015181.5312,-61.5234375,-134.765625,-9.765625,161.1328125,8.7890625
1656409015185.4375,-74.70703125,-155.2734375,-31.73828125,137.20703125,295.41015625
1656409015189.3438,-65.91796875,-156.73828125,-43.9453125,161.62109375,98.14453125
1656409015193.25,-57.6171875,-159.66796875,-43.9453125,176.7578125,-125
1656409015197.1562,-63.96484375,-163.57421875,-41.9921875,164.55078125,-20.99609375
1656409015201.0625,-80.078125,-167.96875,-55.17578125,134.27734375,2.9296875
1656409015204.9688,-67.3828125,-166.50390625,-76.171875,124.0234375,-100.09765625
1656409015208.875,-41.015625,-149.90234375,-72.75390625,163.57421875,-133.7890625
1656409015212.7812,-68.84765625,-145.01953125,-65.91796875,161.62109375,7.32421875
1656409015216.6875,-104.4921875,-148.4375,-70.3125,128.41796875,59.5703125
1656409015220.5938,-102.05078125,-152.34375,-64.94140625,138.671875,-61.03515625
1656409015224.5,-85.44921875,-163.57421875,-64.453125,143.06640625,-155.76171875
1656409015228.4062,-80.56640625,-166.50390625,-71.2890625,151.3671875,69.82421875
1656409015232.3125,-71.77734375,-158.69140625,-80.078125,160.15625,352.5390625
1656409015236.2188,-103.515625,-165.0390625,-90.33203125,129.8828125,54.19921875
1656409015240.125,-136.23046875,-185.05859375,-100.5859375,115.234375,-109.375
1656409015244.0312,11.23046875,-183.10546875,-102.05078125,110.83984375,24.4140625
1656409015247.9375,224.609375,-169.43359375,-97.65625,108.88671875,-5.859375
1656409015251.8438,282.71484375,-167.96875,-105.95703125,113.76953125,-98.14453125
1656409015255.75,277.83203125,-169.921875,-117.67578125,124.51171875,-83.49609375
1656409015259.6562,238.76953125,-164.0625,-118.65234375,108.3984375,-77.63671875
1656409015263.5625,207.51953125,-158.203125,-112.3046875,86.9140625,-68.84765625
1656409015267.4688,169.921875,-147.94921875,-106.4453125,99.609375,-116.2109375
1656409015271.375,141.11328125,-130.37109375,-90.33203125,131.34765625,-106.4453125
1656409015275.2812,113.28125,-118.65234375,-79.1015625,138.18359375,104.98046875
1656409015279.1875,60.05859375,-130.859375,-93.26171875,100.09765625,169.921875
1656409015283.0938,21.484375,-155.76171875,-113.76953125,70.80078125,49.8046875
1656409015287,8.7890625,-162.109375,-111.81640625,91.796875,-4.8828125
1656409015290.9062,-13.18359375,-166.9921875,-108.88671875,104.98046875,230.95703125
1656409015294.8125,-24.90234375,-157.71484375,-105.46875,104.98046875,169.921875
1656409015298.7188,-13.18359375,-144.04296875,-94.7265625,109.86328125,-104.98046875
1656409015302.625,-39.0625,-143.5546875,-99.12109375,84.9609375,-43.9453125
1656409015306.5312,-76.66015625,-142.08984375,-108.3984375,88.37890625,-60.546875
1656409015310.4375,-77.63671875,-138.18359375,-101.5625,125,-114.2578125
1656409015314.3438,-82.51953125,-130.37109375,-83.0078125,131.34765625,-74.21875
1656409015318.25,-84.9609375,-123.046875,-65.4296875,118.65234375,-52.24609375
1656409015322.1562,-76.66015625,-130.37109375,-71.77734375,107.91015625,-19.04296875
1656409015326.0625,-83.984375,-129.39453125,-79.1015625,104.98046875,36.1328125
1656409015329.9688,-88.8671875,-114.74609375,-71.2890625,111.81640625,-12.6953125
1656409015333.875,-89.35546875,-102.5390625,-65.4296875,125.9765625,-17.578125
1656409015337.7812,-104.98046875,-102.05078125,-62.01171875,114.2578125,-2.9296875
1656409015341.6875,-141.6015625,-124.51171875,-79.58984375,58.10546875,-93.75
1656409015345.5938,-158.203125,-149.90234375,-111.81640625,42.96875,-161.1328125
1656409015349.5,-134.27734375,-149.4140625,-109.86328125,73.2421875,104.98046875
1656409015353.4062,-139.6484375,-145.01953125,-97.16796875,81.54296875,306.640625
1656409015357.3125,-177.24609375,-148.4375,-101.07421875,58.10546875,0.9765625
1656409015361.2188,-225.09765625,-153.80859375,-105.46875,32.2265625,-85.44921875
1656409015365.125,-259.27734375,-157.71484375,-101.5625,39.55078125,-17.08984375
1656409015369.0312,-243.1640625,-152.34375,-102.05078125,69.82421875,-11.23046875
1656409015372.9375,-238.28125,-148.92578125,-102.5390625,82.03125,37.109375
1656409015376.8438,-214.84375,-139.6484375,-102.5390625,94.7265625,66.89453125
1656409015380.75,-187.5,-130.859375,-109.86328125,91.796875,220.21484375
1656409015384.6562,-228.515625,-147.4609375,-125,45.41015625,89.35546875
1656409015388.5625,-258.30078125,-163.57421875,-140.625,23.92578125,-149.90234375
1656409015392.4688,-221.6796875,-154.296875,-139.16015625,49.31640625,32.71484375
1656409015396.375,-203.125,-152.34375,-134.765625,60.05859375,125.48828125
1656409015400.2812,-229.00390625,-169.921875,-149.4140625,39.0625,-84.47265625
1656409015404.1875,-225.5859375,-164.55078125,-161.62109375,44.921875,-117.1875
1656409015408.0938,-186.03515625,-150.87890625,-157.2265625,43.9453125,-19.04296875
1656409015412,-185.546875,-158.203125,-147.94921875,15.13671875,-19.53125
1656409015415.9062,-201.171875,-166.9921875,-140.625,-9.27734375,-14.16015625
1656409015419.8125,-178.22265625,-162.109375,-136.71875,-7.32421875,-11.23046875
1656409015423.7188,-147.4609375,-145.99609375,-130.37109375,18.5546875,135.25390625
1656409015427.625,-157.2265625,-144.04296875,-134.27734375,18.06640625,208.49609375
1656409015431.5312,-176.26953125,-153.80859375,-139.16015625,14.6484375,-51.26953125
1656409015435.4375,-149.4140625,-151.85546875,-138.18359375,24.90234375,-94.23828125
1656409015439.3438,-147.94921875,-147.94921875,-137.6953125,18.06640625,-2.44140625
1656409015443.25,-172.36328125,-152.34375,-143.5546875,-9.27734375,-55.17578125
1656409015447.1562,-187.98828125,-152.83203125,-153.3203125,-5.859375,-135.7421875
1656409015451.0625,-192.3828125,-148.4375,-155.2734375,23.4375,-3.90625
1656409015454.9688,-191.40625,-145.5078125,-145.01953125,47.36328125,118.65234375
1656409015458.875,-176.7578125,-143.06640625,-129.8828125,54.19921875,-22.94921875
1656409015462.7812,-157.71484375,-140.13671875,-120.1171875,54.19921875,-47.8515625
1656409015466.6875,-138.18359375,-139.6484375,-115.72265625,64.453125,99.12109375
1656409015470.5938,-116.69921875,-134.27734375,-107.421875,81.54296875,355.95703125
1656409015474.5,-128.90625,-122.0703125,-86.42578125,82.51953125,239.74609375
1656409015478.4062,-133.30078125,-123.046875,-68.84765625,66.40625,-127.9296875
1656409015482.3125,-125.48828125,-124.51171875,-60.05859375,63.96484375,-92.7734375
1656409015486.2188,-137.20703125,-120.1171875,-71.77734375,73.2421875,-59.08203125
1656409015490.125,-129.8828125,-114.2578125,-82.51953125,85.44921875,-119.140625
1656409015494.0312,-125,-111.81640625,-67.87109375,104.98046875,-139.6484375
1656409015497.9375,-169.921875,-145.01953125,-78.61328125,64.453125,-48.828125
1656409015501.8438,-217.7734375,-178.7109375,-101.07421875,0.9765625,-23.92578125
1656409015505.75,-211.9140625,-169.43359375,-97.65625,14.16015625,-84.47265625
1656409015509.6562,-190.4296875,-151.85546875,-92.28515625,27.83203125,-91.796875
1656409015513.5625,-175.78125,-139.16015625,-93.75,22.94921875,196.77734375
1656409015517.4688,-169.921875,-131.8359375,-94.23828125,27.83203125,409.66796875
1656409015521.375,-167.96875,-124.51171875,-89.84375,27.34375,36.1328125
1656409015525.2812,-145.5078125,-112.3046875,-86.9140625,44.921875,-158.203125
1656409015529.1875,-132.8125,-97.16796875,-84.47265625,59.08203125,-76.66015625
1656409015533.0938,-139.6484375,-100.5859375,-91.796875,44.43359375,-74.70703125
1656409015537,-146.97265625,-110.3515625,-93.75,25.390625,-114.74609375
1656409015540.9062,-147.94921875,-105.46875,-82.51953125,39.0625,-89.84375
1656409015544.8125,-170.41015625,-121.09375,-102.5390625,23.92578125,-23.4375
1656409015548.7188,-206.0546875,-148.4375,-151.85546875,-17.578125,-43.45703125
1656409015552.625,-215.8203125,-150.390625,-163.0859375,-6.34765625,-85.9375
1656409015556.5312,-204.58984375,-134.765625,-140.625,18.06640625,-11.71875
1656409015560.4375,-176.7578125,-120.1171875,-120.60546875,12.6953125,172.8515625
1656409015564.3438,-147.94921875,-117.1875,-106.4453125,12.20703125,109.86328125
1656409015568.25,-120.60546875,-109.86328125,-93.75,55.6640625,-36.1328125
1656409015572.1562,-112.79296875,-109.375,-91.30859375,79.1015625,55.6640625
1656409015576.0625,-113.28125,-103.515625,-76.66015625,74.21875,161.1328125
1656409015579.9688,-93.75,-77.1484375,-44.43359375,80.078125,-29.296875
1656409015583.875,-132.32421875,-77.63671875,-50.78125,83.49609375,-166.015625
1656409015587.7812,-209.47265625,-91.796875,-79.58984375,73.73046875,-69.3359375
1656409015591.6875,-210.44921875,-90.33203125,-75.1953125,79.58984375,-8.7890625
1656409015595.5938,-191.89453125,-80.078125,-45.8984375,94.7265625,-69.3359375
1656409015599.5,-211.9140625,-75.68359375,-24.4140625,84.47265625,-98.6328125
1656409015603.4062,-199.70703125,-64.94140625,-9.27734375,77.1484375,47.8515625
1656409015607.3125,-166.50390625,-60.05859375,-11.23046875,64.94140625,95.21484375
1656409015611.2188,-149.4140625,-70.3125,-30.2734375,63.4765625,-73.73046875
1656409015615.125,-120.1171875,-77.63671875,-55.6640625,77.1484375,-137.6953125
1656409015619.0312,-96.19140625,-79.1015625,-68.84765625,63.96484375,131.34765625
1656409015622.9375,-98.14453125,-72.265625,-64.94140625,48.33984375,227.05078125
1656409015626.8438,-119.62890625,-63.96484375,-54.6875,43.45703125,-19.04296875
1656409015630.75,-146.97265625,-67.3828125,-53.22265625,50.78125,-94.23828125
1656409015634.6562,-158.203125,-83.984375,-65.4296875,68.84765625,-15.13671875
1656409015638.5625,-154.78515625,-86.42578125,-60.546875,92.7734375,-29.296875
1656409015642.4688,-136.71875,-78.125,-44.43359375,84.9609375,-146.484375
1656409015646.375,-125.9765625,-78.125,-48.33984375,59.08203125,-103.515625
1656409015650.2812,-103.02734375,-78.125,-55.17578125,69.3359375,79.1015625
1656409015654.1875,-75.1953125,-69.82421875,-51.7578125,92.7734375,125.48828125
1656409015658.0938,-71.77734375,-62.5,-50.29296875,93.26171875,-36.62109375
1656409015662,-61.03515625,-59.5703125,-42.96875,83.984375,-26.3671875
1656409015665.9062,-50.78125,-59.5703125,-28.80859375,84.47265625,235.83984375
1656409015669.8125,-54.19921875,-62.98828125,-16.11328125,102.5390625,100.5859375
1656409015673.7188,-58.59375,-60.05859375,-9.27734375,104.98046875,-83.0078125
1656409015677.625,-54.19921875,-59.5703125,-10.25390625,99.12109375,-20.01953125
1656409015681.5312,-41.9921875,-60.546875,-15.625,104.4921875,-17.08984375
1656409015685.4375,-41.015625,-62.98828125,-41.9921875,91.796875,-42.48046875
1656409015689.3438,-68.84765625,-80.56640625,-80.078125,78.125,-62.98828125
1656409015693.25,-86.42578125,-105.46875,-105.95703125,58.10546875,89.35546875
1656409015697.1562,-89.84375,-119.62890625,-118.65234375,24.90234375,219.7265625
1656409015701.0625,-103.02734375,-117.67578125,-111.81640625,10.7421875,83.0078125
1656409015704.9688,-97.16796875,-112.79296875,-101.5625,23.4375,-86.42578125
1656409015708.875,-83.0078125,-115.72265625,-106.4453125,37.109375,88.8671875
1656409015712.7812,-66.40625,-118.1640625,-114.2578125,40.52734375,237.79296875
1656409015716.6875,-58.10546875,-116.2109375,-108.3984375,25.87890625,-70.80078125
1656409015720.5938,-34.66796875,-117.67578125,-97.16796875,9.27734375,-125.48828125
1656409015724.5,5.37109375,-112.3046875,-81.54296875,27.34375,-27.83203125
1656409015728.4062,4.8828125,-100.5859375,-68.359375,51.7578125,-47.36328125
1656409015732.3125,-3.90625,-91.796875,-65.91796875,57.6171875,-78.125
1656409015736.2188,-8.30078125,-94.23828125,-75.68359375,50.78125,-63.4765625
1656409015740.125,-31.73828125,-105.46875,-87.40234375,39.0625,54.6875
1656409015744.0312,-42.48046875,-107.421875,-80.078125,21.484375,126.46484375
1656409015747.9375,-37.59765625,-102.5390625,-61.5234375,30.76171875,96.6796875
1656409015751.8438,-15.625,-98.6328125,-44.43359375,57.6171875,108.88671875
1656409015755.75,-7.8125,-101.5625,-29.78515625,55.17578125,285.64453125
1656409015759.6562,-16.6015625,-100.5859375,-23.92578125,37.109375,195.80078125
1656409015763.5625,-27.83203125,-100.09765625,-21.97265625,24.4140625,-119.62890625
1656409015767.4688,-40.52734375,-102.05078125,-17.578125,20.01953125,-81.0546875
1656409015771.375,-40.0390625,-101.5625,-6.34765625,28.3203125,-50.29296875
1656409015775.2812,-26.85546875,-105.46875,-3.41796875,31.73828125,-100.09765625
1656409015779.1875,-28.80859375,-117.67578125,-13.18359375,4.39453125,-72.75390625
1656409015783.0938,-46.875,-113.76953125,-8.7890625,-17.08984375,-57.6171875
1656409015787,-57.6171875,-100.5859375,3.90625,0.9765625,-58.10546875
1656409015790.9062,-46.38671875,-106.4453125,-0.48828125,14.6484375,33.69140625
1656409015794.8125,-44.921875,-112.79296875,-11.71875,23.92578125,62.5
1656409015798.7188,-53.7109375,-118.1640625,-22.4609375,44.921875,190.4296875
1656409015802.625,-40.52734375,-116.69921875,-29.296875,48.828125,375
1656409015806.5312,-19.53125,-109.86328125,-29.296875,31.73828125,41.9921875
1656409015810.4375,-17.578125,-109.86328125,-21.484375,32.2265625,-134.27734375
1656409015814.3438,-24.4140625,-116.2109375,-24.90234375,44.43359375,-24.90234375
1656409015818.25,-31.25,-127.9296875,-38.0859375,32.71484375,-58.10546875
1656409015822.1562,-46.875,-149.4140625,-68.84765625,-0.48828125,-178.7109375
1656409015826.0625,-61.5234375,-156.73828125,-81.0546875,-20.5078125,-144.04296875
1656409015829.9688,-57.12890625,-136.71875,-64.453125,-25.87890625,-74.70703125
1656409015833.875,-61.5234375,-139.16015625,-78.61328125,-37.59765625,-90.8203125
1656409015837.7812,-69.3359375,-141.11328125,-90.8203125,-30.2734375,-12.6953125
1656409015841.6875,-65.91796875,-133.7890625,-82.51953125,-22.4609375,64.453125
1656409015845.5938,-77.1484375,-132.8125,-67.3828125,-27.83203125,226.5625
1656409015849.5,-74.21875,-122.0703125,-48.33984375,-14.6484375,64.94140625
1656409015853.4062,-44.921875,-101.07421875,-31.73828125,18.06640625,-164.55078125
1656409015857.3125,-16.11328125,-91.796875,-32.71484375,31.73828125,-63.96484375
1656409015861.2188,-10.25390625,-87.40234375,-28.80859375,11.23046875,19.04296875
1656409015865.125,-23.4375,-82.51953125,-18.5546875,-0.48828125,-42.96875
1656409015869.0312,-26.85546875,-86.9140625,-18.06640625,0.9765625,-104.4921875
1656409015872.9375,-16.11328125,-87.890625,-21.484375,20.99609375,69.82421875
1656409015876.8438,6.8359375,-65.91796875,-13.18359375,29.296875,119.140625
1656409015880.75,0.48828125,-48.33984375,-9.765625,32.71484375,-86.42578125
1656409015884.6562,16.11328125,-39.0625,-8.30078125,57.6171875,-34.66796875
1656409015888.5625,67.87109375,-14.16015625,12.20703125,89.35546875,285.15625
1656409015892.4688,66.89453125,9.765625,21.97265625,103.515625,307.6171875
1656409015896.375,35.15625,9.27734375,9.765625,63.96484375,-62.5
1656409015900.2812,24.90234375,6.8359375,1.953125,45.8984375,-106.93359375
1656409015904.1875,42.96875,27.83203125,-2.9296875,69.82421875,-35.15625
1656409015908.0938,67.87109375,45.8984375,1.46484375,75.68359375,-57.12890625
1656409015912,79.1015625,54.6875,15.13671875,91.30859375,-90.33203125
1656409015915.9062,83.984375,62.5,30.2734375,107.91015625,-83.49609375
1656409015919.8125,80.078125,63.96484375,38.0859375,101.07421875,-19.04296875
1656409015923.7188,94.23828125,73.73046875,48.33984375,104.98046875,-56.15234375
1656409015927.625,109.375,86.9140625,63.96484375,124.51171875,-105.46875
1656409015931.5312,86.42578125,65.4296875,52.24609375,114.74609375,72.265625
1656409015935.4375,57.6171875,41.50390625,39.55078125,99.12109375,420.41015625
1656409015939.3438,53.7109375,41.9921875,39.0625,103.515625,257.8125
1656409015943.25,61.03515625,39.55078125,36.62109375,79.1015625,-152.34375
1656409015947.1562,40.52734375,28.3203125,39.55078125,61.03515625,-43.9453125
1656409015951.0625,41.015625,24.90234375,44.43359375,66.40625,62.5
1656409015954.9688,29.296875,34.66796875,55.6640625,80.56640625,-88.8671875
1656409015958.875,0.9765625,41.015625,63.4765625,88.8671875,-94.23828125
1656409015962.7812,18.5546875,41.9921875,64.453125,80.078125,-60.546875
1656409015966.6875,25.390625,42.96875,68.359375,67.87109375,-84.47265625
1656409015970.5938,35.15625,41.9921875,71.2890625,75.1953125,-90.33203125
1656409015974.5,57.12890625,44.43359375,83.0078125,94.7265625,-25.390625
1656409015978.4062,78.125,54.6875,99.609375,111.328125,218.75
1656409015982.3125,68.359375,53.22265625,101.07421875,115.234375,211.42578125
1656409015986.2188,50.78125,43.45703125,99.609375,117.67578125,-0.48828125
1656409015990.125,38.57421875,46.875,108.88671875,131.8359375,-101.07421875
1656409015994.0312,24.90234375,46.38671875,103.02734375,120.60546875,105.46875
1656409015997.9375,37.109375,46.875,99.609375,125.48828125,226.5625
1656409016001.8438,57.6171875,51.26953125,97.16796875,134.765625,-70.80078125
1656409016005.75,58.10546875,54.6875,95.21484375,128.41796875,-100.09765625
1656409016009.6562,55.17578125,57.12890625,95.21484375,141.11328125,-0.48828125
1656409016013.5625,55.6640625,58.10546875,93.75,160.15625,-47.8515625
1656409016017.4688,52.24609375,56.15234375,95.703125,152.34375,-174.31640625
1656409016021.375,45.8984375,62.01171875,107.421875,147.4609375,-97.65625
1656409016025.2812,63.4765625,79.1015625,125,163.0859375,56.15234375
1656409016029.1875,69.3359375,92.28515625,140.13671875,158.203125,103.02734375
1656409016033.0938,77.63671875,98.6328125,145.5078125,147.94921875,-10.25390625
1656409016037,85.44921875,93.75,138.671875,159.1796875,-3.41796875
1656409016040.9062,95.21484375,97.65625,143.06640625,169.43359375,133.30078125
1656409016044.8125,99.609375,110.83984375,158.203125,181.640625,-26.85546875
1656409016048.7188,88.8671875,108.3984375,164.0625,180.6640625,-133.30078125
1656409016052.625,96.19140625,100.09765625,157.2265625,174.8046875,49.8046875
1656409016056.5312,120.60546875,106.93359375,175.29296875,195.80078125,101.5625
1656409016060.4375,137.6953125,120.60546875,203.61328125,199.21875,-32.71484375
1656409016064.3438,135.25390625,127.44140625,210.9375,189.453125,-130.37109375
1656409016068.25,119.140625,121.09375,213.37890625,207.03125,59.5703125
1656409016072.1562,91.30859375,112.79296875,208.0078125,205.56640625,219.23828125
1656409016076.0625,80.56640625,106.4453125,194.82421875,187.98828125,61.03515625
1656409016079.9688,81.54296875,97.16796875,179.19921875,162.109375,-64.94140625
1656409016083.875,83.984375,90.33203125,157.2265625,143.5546875,114.2578125
1656409016087.7812,98.14453125,78.61328125,145.01953125,142.578125,290.52734375
1656409016091.6875,104.00390625,82.51953125,155.76171875,150.390625,-38.0859375
1656409016095.5938,109.86328125,85.9375,168.9453125,175.78125,-46.875
1656409016099.5,130.37109375,84.9609375,165.52734375,187.01171875,80.078125
1656409016103.4062,136.71875,84.9609375,152.83203125,170.8984375,-8.7890625
1656409016107.3125,115.234375,83.0078125,144.53125,151.85546875,-121.09375
1656409016111.2188,112.79296875,82.03125,141.6015625,165.0390625,-54.19921875
1656409016115.125,137.20703125,78.61328125,139.16015625,183.59375,51.7578125
1656409016119.0312,50.29296875,101.07421875,153.80859375,200.68359375,76.66015625
1656409016122.9375,-75.1953125,115.72265625,173.33984375,215.33203125,56.640625
1656409016126.8438,-108.88671875,113.28125,182.12890625,197.265625,4.8828125
1656409016130.75,-112.79296875,121.09375,174.8046875,217.28515625,232.91015625
1656409016134.6562,-108.3984375,111.81640625,156.73828125,232.421875,156.25
1656409016138.5625,-94.7265625,104.98046875,152.34375,188.96484375,-81.54296875
1656409016142.4688,-87.40234375,106.93359375,154.296875,193.84765625,-19.04296875
1656409016146.375,-90.33203125,107.91015625,165.0390625,191.89453125,-31.73828125
1656409016150.2812,-114.2578125,100.09765625,164.0625,175.29296875,-58.59375
1656409016154.1875,-133.30078125,80.56640625,140.625,159.66796875,-38.57421875
1656409016158.0938,-124.51171875,73.73046875,126.46484375,151.3671875,61.03515625
1656409016162,-125.48828125,66.40625,113.76953125,147.4609375,62.98828125
1656409016165.9062,-98.6328125,55.6640625,101.5625,135.25390625,-1.953125
1656409016169.8125,-77.1484375,46.38671875,96.6796875,122.55859375,51.7578125
1656409016173.7188,-101.07421875,29.296875,90.33203125,100.09765625,209.47265625
1656409016177.625,-84.9609375,21.484375,84.47265625,82.03125,252.9296875
1656409016181.5312,-55.17578125,24.4140625,84.47265625,82.51953125,-105.46875
1656409016185.4375,-41.50390625,25.390625,86.42578125,91.796875,-188.96484375
1656409016189.3438,-19.04296875,25.87890625,71.77734375,98.6328125,-72.265625
1656409016193.25,-17.578125,13.18359375,55.17578125,88.8671875,-54.19921875
1656409016197.1562,-29.78515625,1.953125,59.08203125,86.42578125,-86.9140625
1656409016201.0625,-55.6640625,-3.41796875,62.01171875,112.3046875,-75.68359375
1656409016204.9688,-68.359375,-15.625,54.19921875,104.00390625,-18.06640625
1656409016208.875,-71.77734375,-25.390625,52.24609375,79.1015625,-42.48046875
1656409016212.7812,-72.265625,-27.34375,56.15234375,81.0546875,-14.16015625
1656409016216.6875,-72.75390625,-28.80859375,61.5234375,68.84765625,105.95703125
1656409016220.5938,-105.46875,-39.0625,57.12890625,62.98828125,393.5546875
1656409016224.5,-133.7890625,-58.10546875,39.0625,48.33984375,293.45703125
1656409016228.4062,-131.34765625,-75.1953125,18.06640625,16.11328125,-108.3984375
1656409016232.3125,-136.71875,-83.0078125,8.7890625,11.23046875,-82.03125
1656409016236.2188,-157.2265625,-89.84375,15.13671875,6.34765625,-22.4609375
1656409016240.125,-170.41015625,-99.12109375,10.25390625,-29.296875,-132.32421875
1656409016244.0312,-162.59765625,-103.02734375,4.8828125,-56.15234375,-163.0859375
1656409016247.9375,-137.6953125,-96.19140625,12.6953125,-47.36328125,-72.265625
1656409016251.8438,-136.71875,-93.75,15.625,-28.80859375,-37.109375
1656409016255.75,-143.06640625,-89.35546875,20.5078125,-20.5078125,-44.921875
1656409016259.6562,-143.06640625,-84.47265625,15.625,-28.3203125,4.39453125
1656409016263.5625,-147.94921875,-82.51953125,4.8828125,-32.71484375,153.3203125
1656409016267.4688,-134.765625,-72.75390625,1.953125,-11.71875,187.5
1656409016271.375,-130.859375,-64.453125,5.37109375,-6.34765625,13.18359375
1656409016275.2812,-146.97265625,-70.3125,14.16015625,-26.3671875,-93.26171875
1656409016279.1875,-150.390625,-80.078125,18.06640625,-35.64453125,130.859375
1656409016283.0938,-152.83203125,-81.0546875,22.94921875,-36.1328125,200.1953125
1656409016287,-129.8828125,-77.63671875,16.11328125,-4.8828125,-126.46484375
1656409016290.9062,-108.88671875,-75.1953125,1.46484375,19.53125,-131.8359375
1656409016294.8125,-110.3515625,-71.2890625,-3.90625,7.32421875,30.2734375
1656409016298.7188,-103.02734375,-63.96484375,-8.7890625,8.30078125,24.90234375
1656409016302.625,-108.3984375,-63.4765625,-7.8125,1.46484375,-84.47265625
1656409016306.5312,-120.1171875,-62.5,-5.859375,-2.9296875,54.6875
1656409016310.4375,-117.1875,-58.10546875,-15.13671875,19.04296875,290.52734375
1656409016314.3438,-106.93359375,-51.26953125,-4.8828125,33.203125,127.44140625
1656409016318.25,-90.8203125,-42.48046875,19.53125,31.25,-98.14453125
1656409016322.1562,-96.19140625,-33.203125,36.62109375,30.2734375,-45.41015625
1656409016326.0625,-107.421875,-33.203125,46.38671875,23.4375,65.4296875
1656409016329.9688,-88.37890625,-22.4609375,60.05859375,43.9453125,60.546875
1656409016333.875,-60.05859375,1.953125,89.35546875,79.58984375,-92.28515625
1656409016337.7812,-44.43359375,4.8828125,92.7734375,50.29296875,28.3203125
1656409016341.6875,-59.5703125,-0.9765625,60.546875,30.76171875,113.76953125
1656409016345.5938,-67.3828125,4.8828125,55.17578125,64.453125,-104.4921875
1656409016349.5,-62.98828125,11.71875,81.0546875,75.1953125,-126.953125
1656409016353.4062,-84.9609375,17.08984375,88.37890625,60.05859375,153.3203125
1656409016357.3125,-104.4921875,17.578125,79.58984375,50.29296875,214.84375
1656409016361.2188,-107.421875,10.25390625,58.10546875,32.2265625,-65.91796875
1656409016365.125,-104.98046875,8.30078125,39.0625,39.55078125,-139.6484375
1656409016369.0312,-110.3515625,2.9296875,34.1796875,63.96484375,91.796875
1656409016372.9375,-108.88671875,-2.9296875,31.25,62.01171875,132.8125
1656409016376.8438,-109.86328125,-11.23046875,28.3203125,41.9921875,-86.9140625
1656409016380.75,-107.91015625,-22.94921875,29.296875,26.3671875,-106.93359375
1656409016384.6562,-102.5390625,-32.2265625,32.2265625,22.94921875,12.20703125
1656409016388.5625,-93.75,-34.1796875,23.92578125,36.1328125,40.52734375
1656409016392.4688,-98.14453125,-48.828125,0.9765625,38.0859375,-104.4921875
1656409016396.375,-143.06640625,-79.1015625,-18.06640625,0,-117.67578125
1656409016400.2812,-173.828125,-99.609375,-32.71484375,-22.94921875,204.1015625
1656409016404.1875,-165.0390625,-102.05078125,-39.0625,-24.4140625,226.07421875
1656409016408.0938,-158.203125,-103.02734375,-38.0859375,-26.85546875,-85.44921875
1656409016412,-162.109375,-110.3515625,-55.17578125,-33.69140625,-34.66796875
1656409016415.9062,-181.640625,-121.58203125,-79.1015625,-45.41015625,119.140625
1656409016419.8125,-195.80078125,-137.20703125,-81.54296875,-76.171875,5.859375
1656409016423.7188,-217.7734375,-150.87890625,-74.21875,-100.09765625,-102.5390625
1656409016427.625,-234.375,-167.48046875,-87.40234375,-90.33203125,-11.23046875
1656409016431.5312,-238.28125,-171.875,-108.88671875,-68.84765625,31.73828125
1656409016435.4375,-231.93359375,-166.015625,-119.62890625,-75.68359375,-83.0078125
1656409016439.3438,-230.46875,-168.9453125,-116.69921875,-114.2578125,-125
1656409016443.25,-244.140625,-170.41015625,-105.46875,-122.55859375,-32.2265625
1656409016447.1562,-236.81640625,-174.31640625,-97.16796875,-99.609375,110.3515625
1656409016451.0625,-225.5859375,-167.96875,-91.30859375,-84.9609375,93.26171875
1656409016454.9688,-213.37890625,-149.90234375,-87.40234375,-90.33203125,9.27734375
1656409016458.875,-196.77734375,-157.2265625,-83.0078125,-64.94140625,156.25
1656409016462.7812,-172.36328125,-161.1328125,-73.2421875,-40.52734375,325.1953125
1656409016466.6875,-174.31640625,-157.71484375,-62.5,-47.8515625,33.203125
1656409016470.5938,-179.6875,-159.1796875,-48.828125,-37.109375,-137.6953125
1656409016474.5,-160.15625,-156.73828125,-52.24609375,-31.25,-66.40625
1656409016478.4062,-157.71484375,-144.53125,-66.89453125,-42.48046875,-50.29296875
1656409016482.3125,-171.38671875,-149.90234375,-86.42578125,-58.10546875,-100.09765625
1656409016486.2188,-191.40625,-176.26953125,-113.28125,-72.265625,-80.078125
1656409016490.125,-196.77734375,-184.5703125,-121.09375,-81.0546875,-7.8125
1656409016494.0312,-206.0546875,-187.01171875,-120.1171875,-89.84375,-22.94921875
1656409016497.9375,-214.84375,-203.61328125,-123.53515625,-89.84375,-39.55078125
1656409016501.8438,-216.30859375,-205.56640625,-119.62890625,-105.95703125,21.484375
1656409016505.75,-209.47265625,-188.4765625,-96.6796875,-90.8203125,365.234375
1656409016509.6562,-197.75390625,-170.8984375,-77.63671875,-73.73046875,342.7734375
1656409016513.5625,-172.8515625,-154.78515625,-68.359375,-85.44921875,-33.69140625
1656409016517.4688,-157.2265625,-152.83203125,-53.7109375,-79.1015625,-26.3671875
1656409016521.375,-146.484375,-150.390625,-46.875,-68.84765625,-16.6015625
1656409016525.2812,-143.5546875,-133.7890625,-52.24609375,-60.05859375,-86.42578125
1656409016529.1875,-153.80859375,-115.72265625,-53.22265625,-47.36328125,-101.5625
1656409016533.0938,-153.3203125,-94.7265625,-46.38671875,-42.48046875,-45.41015625
1656409016537,-177.24609375,-95.703125,-27.83203125,-28.3203125,-23.92578125
1656409016540.9062,-188.4765625,-87.40234375,-13.18359375,-20.01953125,-34.1796875
1656409016544.8125,-177.24609375,-72.75390625,-9.27734375,-37.109375,-37.109375
1656409016548.7188,-154.296875,-72.265625,-1.46484375,-18.5546875,125.48828125
1656409016552.625,-136.23046875,-65.91796875,12.20703125,4.39453125,208.984375
1656409016556.5312,-100.09765625,-65.4296875,23.92578125,24.4140625,-15.13671875
1656409016560.4375,-75.1953125,-62.98828125,29.78515625,38.0859375,-67.87109375
1656409016564.3438,-86.42578125,-41.9921875,53.7109375,46.875,227.5390625
1656409016568.25,-45.41015625,-20.99609375,79.58984375,59.08203125,196.77734375
1656409016572.1562,-14.16015625,-10.7421875,82.03125,83.984375,-92.7734375
1656409016576.0625,-23.92578125,-7.8125,77.63671875,87.890625,-25.390625
1656409016579.9688,-40.52734375,-21.97265625,56.640625,42.48046875,3.90625
1656409016583.875,-76.66015625,-32.2265625,41.50390625,13.671875,-56.15234375
1656409016587.7812,-131.34765625,-34.66796875,46.38671875,30.76171875,-32.2265625
1656409016591.6875,-167.96875,-40.0390625,41.015625,45.41015625,69.82421875
1656409016595.5938,-147.4609375,-35.15625,29.78515625,32.2265625,148.4375
1656409016599.5,-123.046875,-28.80859375,26.3671875,25.390625,13.18359375
1656409016603.4062,-132.8125,-39.0625,17.08984375,30.76171875,-141.11328125
1656409016607.3125,-147.94921875,-44.921875,5.859375,39.0625,-27.83203125
1656409016611.2188,-149.90234375,-51.7578125,0.9765625,26.3671875,105.95703125
1656409016615.125,-125.9765625,-40.0390625,12.6953125,7.8125,-41.50390625
1656409016619.0312,-99.609375,-14.6484375,38.57421875,26.3671875,-68.359375
1656409016622.9375,-101.07421875,-7.32421875,52.24609375,41.50390625,151.85546875
1656409016626.8438,-102.05078125,-0.9765625,62.01171875,41.50390625,113.28125
1656409016630.75,-108.3984375,0.9765625,61.5234375,45.8984375,-86.9140625
1656409016634.6562,-107.421875,-13.671875,52.734375,30.2734375,-91.30859375
1656409016638.5625,-94.7265625,-27.83203125,56.640625,29.296875,155.2734375
1656409016642.4688,-117.1875,-37.59765625,57.6171875,40.52734375,285.15625
1656409016646.375,-104.00390625,-34.66796875,53.7109375,31.25,-54.6875
1656409016650.2812,-88.37890625,-32.2265625,53.22265625,47.36328125,-149.90234375
1656409016654.1875,-96.19140625,-27.83203125,54.19921875,83.0078125,-41.015625
1656409016658.0938,-78.61328125,-23.4375,63.4765625,63.4765625,-48.33984375
1656409016662,-65.4296875,-22.4609375,69.82421875,32.71484375,-146.484375
1656409016665.9062,-69.3359375,-24.90234375,69.82421875,42.96875,-129.8828125
1656409016669.8125,-80.56640625,-18.5546875,73.73046875,47.8515625,-55.17578125
1656409016673.7188,-78.125,-34.1796875,62.98828125,39.55078125,-46.38671875
1656409016677.625,-93.26171875,-77.63671875,49.31640625,24.4140625,-67.87109375
1656409016681.5312,-117.67578125,-82.03125,46.38671875,25.390625,-13.671875
1656409016685.4375,-146.97265625,-77.1484375,43.9453125,6.8359375,285.15625
1656409016689.3438,-144.53125,-81.0546875,41.50390625,-5.859375,241.69921875
1656409016693.25,-111.328125,-75.1953125,38.57421875,5.37109375,-102.5390625
1656409016697.1562,-104.98046875,-69.82421875,40.0390625,-5.859375,-6.34765625
1656409016701.0625,-117.1875,-66.89453125,43.9453125,-15.13671875,103.02734375
1656409016704.9688,-92.28515625,-61.03515625,46.38671875,-20.5078125,-49.8046875
1656409016708.875,-86.42578125,-58.10546875,57.12890625,-13.18359375,-109.86328125
1656409016712.7812,-116.69921875,-54.19921875,66.40625,7.8125,-27.83203125
1656409016716.6875,-144.04296875,-51.26953125,65.91796875,0.9765625,24.90234375
1656409016720.5938,-165.52734375,-57.12890625,59.5703125,-14.16015625,-42.48046875
1656409016724.5,-159.1796875,-58.59375,56.15234375,-10.25390625,-110.3515625
1656409016728.4062,-151.3671875,-52.734375,54.19921875,-3.41796875,67.3828125
1656409016732.3125,-145.01953125,-50.78125,51.26953125,-1.46484375,142.578125
1656409016736.2188,-152.83203125,-69.82421875,27.34375,-16.6015625,10.7421875
1656409016740.125,-172.36328125,-94.23828125,2.9296875,-56.15234375,-42.48046875
1656409016744.0312,-172.8515625,-88.8671875,-4.39453125,-63.4765625,76.171875
1656409016747.9375,-155.76171875,-72.265625,-5.859375,-37.59765625,300.78125
1656409016751.8438,-116.2109375,-58.10546875,7.32421875,-9.27734375,63.96484375
1656409016755.75,-86.9140625,-21.97265625,41.015625,21.484375,-123.53515625
1656409016759.6562,-91.796875,6.34765625,77.1484375,8.30078125,-74.21875
1656409016763.5625,-61.03515625,2.44140625,104.00390625,6.8359375,-83.0078125
1656409016767.4688,-29.78515625,4.39453125,119.62890625,36.1328125,-134.27734375
1656409016771.375,-28.80859375,12.6953125,113.76953125,48.33984375,-84.9609375
1656409016775.2812,-28.80859375,12.20703125,99.609375,48.828125,79.58984375
1656409016779.1875,-52.24609375,-0.9765625,91.30859375,40.52734375,111.328125
1656409016783.0938,-104.00390625,-16.6015625,79.1015625,-4.39453125,-18.5546875
1656409016787,-148.4375,-29.78515625,71.2890625,-23.92578125,-62.98828125
1656409016790.9062,-164.55078125,-38.0859375,77.1484375,-6.8359375,223.6328125
1656409016794.8125,-156.25,-26.85546875,88.8671875,10.25390625,166.015625
1656409016798.7188,-151.3671875,-13.18359375,100.5859375,11.71875,-18.06640625
1656409016802.625,-166.015625,-16.6015625,102.05078125,-15.13671875,45.8984375
1656409016806.5312,-169.43359375,-21.97265625,100.5859375,-22.4609375,41.015625
1656409016810.4375,-159.1796875,-20.99609375,102.5390625,-9.27734375,-85.9375
1656409016814.3438,-157.2265625,-21.484375,96.6796875,-5.859375,-104.00390625
1656409016818.25,-156.73828125,-23.4375,92.28515625,-14.6484375,-46.38671875
1656409016822.1562,-145.5078125,-19.04296875,90.33203125,1.953125,-18.06640625
1656409016826.0625,-141.11328125,-11.23046875,84.47265625,7.8125,46.38671875
1656409016829.9688,-149.90234375,-10.25390625,78.61328125,-3.41796875,-33.69140625
1656409016833.875,-147.94921875,-8.30078125,73.73046875,7.8125,92.7734375
1656409016837.7812,-119.140625,-1.46484375,65.91796875,9.27734375,220.21484375
1656409016841.6875,-104.4921875,-0.48828125,40.52734375,-2.9296875,-84.9609375
1656409016845.5938,-120.60546875,-3.90625,20.5078125,-3.41796875,-131.8359375
1656409016849.5,-126.46484375,-3.90625,23.92578125,-4.8828125,-46.38671875
1656409016853.4062,-119.62890625,1.46484375,28.80859375,-1.953125,-42.48046875
1656409016857.3125,-99.12109375,7.32421875,33.203125,12.6953125,-37.109375
1656409016861.2188,-109.86328125,-15.13671875,2.9296875,-7.8125,-50.29296875
1656409016865.125,-165.0390625,-55.6640625,-45.8984375,-57.12890625,47.36328125
1656409016869.0312,-191.89453125,-75.68359375,-59.5703125,-78.61328125,137.20703125
1656409016872.9375,-190.91796875,-75.1953125,-56.15234375,-85.9375,51.7578125
1656409016876.8438,-182.6171875,-66.40625,-44.43359375,-81.0546875,-5.859375
1656409016880.75,-162.59765625,-64.453125,-28.80859375,-71.2890625,176.26953125
1656409016884.6562,-164.55078125,-60.546875,-23.92578125,-78.61328125,54.6875
1656409016888.5625,-189.453125,-67.87109375,-21.97265625,-78.125,-112.3046875
1656409016892.4688,-211.42578125,-77.63671875,-22.94921875,-71.77734375,31.73828125
1656409016896.375,-227.05078125,-74.70703125,-15.13671875,-71.2890625,2.9296875
1656409016900.2812,-207.03125,-66.89453125,-6.34765625,-57.6171875,-104.4921875
1656409016904.1875,-196.2890625,-59.08203125,-12.6953125,-72.265625,-96.19140625
1656409016908.0938,-201.171875,-53.7109375,-7.8125,-68.84765625,-43.9453125
1656409016912,-185.05859375,-50.78125,-1.953125,-39.55078125,-9.765625
1656409016915.9062,-189.453125,-47.36328125,-2.44140625,-60.05859375,33.69140625
1656409016919.8125,-191.89453125,-45.41015625,13.18359375,-78.61328125,73.73046875
1656409016923.7188,-169.921875,-42.96875,36.1328125,-57.6171875,225.09765625
1656409016927.625,-152.83203125,-31.73828125,39.55078125,-35.64453125,394.04296875
1656409016931.5312,-135.7421875,-25.390625,33.203125,-27.83203125,160.15625
1656409016935.4375,-136.23046875,-28.3203125,22.94921875,-22.94921875,-56.15234375
1656409016939.3438,-145.5078125,-31.73828125,20.01953125,-36.62109375,-65.4296875
1656409016943.25,-137.20703125,-34.66796875,27.83203125,-24.90234375,-128.90625
1656409016947.1562,-108.88671875,-24.90234375,29.78515625,3.90625,-178.22265625
1656409016951.0625,-102.05078125,-18.5546875,33.203125,-2.9296875,-88.8671875
1656409016954.9688,-124.51171875,-32.2265625,33.203125,-23.4375,-15.625
1656409016958.875,-125.9765625,-37.109375,23.92578125,-36.62109375,-68.84765625
1656409016962.7812,-113.28125,-33.203125,30.2734375,-39.55078125,-6.34765625
1656409016966.6875,-101.07421875,-29.296875,48.33984375,-30.2734375,55.17578125
1656409016970.5938,-78.61328125,-16.11328125,52.24609375,-21.484375,125.9765625
1656409016974.5,-71.77734375,-17.08984375,48.828125,-7.8125,73.73046875
1656409016978.4062,-65.4296875,-20.99609375,41.50390625,3.90625,-120.60546875
1656409016982.3125,-60.05859375,-21.484375,40.0390625,-10.7421875,-98.14453125
1656409016986.2188,-94.7265625,-34.66796875,48.828125,-25.390625,255.859375
1656409016990.125,-113.76953125,-24.4140625,56.15234375,-14.16015625,187.5
1656409016994.0312,-92.7734375,-17.08984375,56.640625,-5.37109375,-119.62890625
1656409016997.9375,-70.80078125,-21.484375,47.36328125,-5.37109375,0.9765625
1656409017001.8438,-78.125,-18.06640625,54.6875,-12.20703125,62.98828125
1656409017005.75,-78.61328125,-11.23046875,61.5234375,-9.27734375,-134.765625
1656409017009.6562,-71.77734375,-1.46484375,62.98828125,10.7421875,-166.015625
1656409017013.5625,-69.82421875,-8.7890625,65.91796875,31.25,173.828125
1656409017017.4688,-62.5,-10.7421875,54.6875,27.34375,298.33984375
1656409017021.375,-71.77734375,-3.90625,41.9921875,-3.41796875,-73.2421875
1656409017025.2812,-74.21875,-5.859375,46.875,-1.953125,-177.24609375
1656409017029.1875,-64.94140625,-13.18359375,50.78125,11.71875,-20.01953125
1656409017033.0938,-51.26953125,-25.87890625,42.48046875,0.9765625,36.62109375
1656409017037,-54.6875,-21.97265625,37.109375,-5.859375,-102.5390625
1656409017040.9062,-55.17578125,-6.8359375,43.9453125,7.32421875,-136.71875
1656409017044.8125,-43.9453125,1.953125,50.29296875,3.41796875,-53.7109375
1656409017048.7188,-38.0859375,9.765625,44.43359375,0,-25.390625
1656409017052.625,-28.3203125,16.6015625,41.9921875,33.69140625,-84.9609375
1656409017056.5312,-38.57421875,8.7890625,38.57421875,26.3671875,-1.953125
1656409017060.4375,-43.9453125,-6.8359375,23.4375,0.9765625,299.8046875
1656409017064.3438,-39.0625,-18.06640625,13.671875,0.48828125,144.04296875
1656409017068.25,-26.3671875,-19.53125,4.39453125,11.23046875,-169.43359375
1656409017072.1562,-18.5546875,-12.20703125,-8.7890625,24.4140625,-86.42578125
1656409017076.0625,-48.33984375,-20.01953125,-2.44140625,-6.34765625,-26.85546875
1656409017079.9688,-75.1953125,-25.87890625,0,-41.015625,-126.953125
1656409017083.875,-77.1484375,-30.2734375,-4.39453125,-37.59765625,-162.59765625
1656409017087.7812,-74.70703125,-18.5546875,-8.7890625,-22.4609375,-64.94140625
1656409017091.6875,-47.36328125,5.859375,4.8828125,25.390625,30.76171875
1656409017095.5938,-16.11328125,10.7421875,16.11328125,43.9453125,-35.15625
1656409017099.5,-9.765625,17.08984375,20.01953125,34.1796875,-145.5078125
1656409017103.4062,-27.34375,20.01953125,30.76171875,28.3203125,90.33203125
1656409017107.3125,-36.1328125,24.90234375,43.45703125,23.4375,379.39453125
1656409017111.2188,-25.390625,23.4375,56.640625,38.57421875,87.40234375
1656409017115.125,-8.7890625,18.5546875,58.10546875,58.59375,-70.3125
1656409017119.0312,-9.765625,17.08984375,50.78125,52.734375,7.8125
1656409017122.9375,-22.94921875,12.6953125,53.22265625,39.0625,-36.1328125
1656409017126.8438,-24.90234375,15.13671875,54.6875,40.0390625,-107.421875
1656409017130.75,-30.76171875,10.25390625,39.0625,58.10546875,-54.19921875
1656409017134.6562,-51.7578125,-4.8828125,23.92578125,44.921875,-1.46484375
1656409017138.5625,-79.58984375,-8.7890625,16.11328125,17.08984375,-6.8359375
1656409017142.4688,-76.66015625,-3.90625,20.5078125,24.4140625,-10.7421875
1656409017146.375,-81.54296875,-3.41796875,29.296875,34.1796875,-17.578125
1656409017150.2812,-87.890625,-7.32421875,35.15625,40.52734375,40.52734375
1656409017154.1875,-82.03125,-2.9296875,45.8984375,47.8515625,93.26171875
1656409017158.0938,-81.0546875,3.41796875,56.15234375,47.36328125,40.52734375
1656409017162,-95.21484375,14.6484375,65.91796875,63.4765625,-5.37109375
1656409017165.9062,-123.046875,27.34375,69.82421875,72.265625,141.6015625
1656409017169.8125,-126.46484375,25.390625,64.453125,62.98828125,33.69140625
1656409017173.7188,-121.09375,24.90234375,63.4765625,71.2890625,-146.97265625
1656409017177.625,-125,21.97265625,71.2890625,59.08203125,-17.08984375
1656409017181.5312,-141.6015625,19.04296875,74.70703125,35.15625,61.5234375
1656409017185.4375,-156.73828125,20.01953125,78.125,43.9453125,-84.9609375
1656409017189.3438,-134.765625,22.94921875,79.58984375,67.87109375,-164.55078125
1656409017193.25,-117.67578125,24.90234375,69.82421875,70.3125,35.15625
1656409017197.1562,-139.6484375,22.94921875,65.4296875,52.734375,162.109375
1656409017201.0625,-147.94921875,18.06640625,60.05859375,51.26953125,89.84375
1656409017204.9688,-125,18.5546875,52.24609375,62.5,-7.32421875
1656409017208.875,-106.4453125,21.484375,46.38671875,69.3359375,111.81640625
1656409017212.7812,-129.8828125,19.53125,38.0859375,82.03125,345.21484375
1656409017216.6875,-138.671875,21.97265625,34.1796875,73.73046875,69.82421875
1656409017220.5938,-104.00390625,17.578125,14.6484375,55.17578125,-128.90625
1656409017224.5,-79.1015625,18.06640625,9.27734375,51.26953125,-100.09765625
1656409017228.4062,-89.84375,17.08984375,20.5078125,47.36328125,-113.76953125
1656409017232.3125,-108.88671875,11.71875,20.5078125,29.296875,-128.41796875
1656409017236.2188,-104.98046875,10.25390625,25.87890625,29.296875,-72.75390625
1656409017240.125,-93.26171875,12.20703125,34.66796875,46.38671875,-5.859375
1656409017244.0312,-52.734375,20.5078125,39.0625,53.7109375,71.2890625
1656409017247.9375,-23.4375,23.4375,36.1328125,49.8046875,69.82421875
1656409017251.8438,-24.4140625,21.484375,33.69140625,46.875,-17.578125
1656409017255.75,-25.390625,23.4375,28.80859375,46.38671875,184.5703125
1656409017259.6562,-24.90234375,22.94921875,26.3671875,32.2265625,99.12109375
1656409017263.5625,-16.11328125,23.92578125,37.59765625,33.203125,-147.94921875
1656409017267.4688,6.34765625,31.25,49.8046875,41.015625,56.640625
1656409017271.375,14.6484375,34.66796875,51.7578125,47.36328125,109.86328125
1656409017275.2812,-0.48828125,28.80859375,48.33984375,52.734375,-98.6328125
1656409017279.1875,10.25390625,30.2734375,44.43359375,57.6171875,-140.625
1656409017283.0938,14.16015625,38.57421875,38.57421875,56.640625,-53.22265625
1656409017287,5.37109375,41.9921875,37.109375,51.7578125,-31.25
1656409017290.9062,15.13671875,42.48046875,39.0625,67.3828125,11.71875
1656409017294.8125,20.01953125,49.8046875,38.0859375,89.84375,4.39453125
1656409017298.7188,19.53125,51.26953125,40.0390625,95.21484375,127.44140625
1656409017302.625,14.6484375,48.828125,50.78125,74.21875,237.3046875
1656409017306.5312,10.25390625,61.03515625,61.5234375,56.640625,-70.3125
1656409017310.4375,1.46484375,59.08203125,68.359375,68.359375,-115.234375
1656409017314.3438,-9.27734375,53.7109375,70.3125,75.68359375,21.484375
1656409017318.25,2.44140625,60.05859375,68.359375,73.73046875,-50.78125
1656409017322.1562,-0.48828125,56.640625,62.5,71.77734375,-87.890625
1656409017326.0625,-19.04296875,47.8515625,61.5234375,64.94140625,14.16015625
1656409017329.9688,-32.71484375,47.8515625,93.26171875,72.265625,75.68359375
1656409017333.875,-40.52734375,45.8984375,115.234375,74.21875,25.390625
1656409017337.7812,-33.69140625,32.2265625,100.09765625,64.453125,34.66796875
1656409017341.6875,-20.01953125,26.3671875,91.796875,69.82421875,106.93359375
1656409017345.5938,-8.30078125,29.78515625,89.35546875,63.4765625,265.625
1656409017349.5,-31.25,28.80859375,93.26171875,60.546875,204.58984375
1656409017353.4062,-49.31640625,22.4609375,103.02734375,50.29296875,-32.2265625
1656409017357.3125,-58.10546875,19.04296875,103.515625,29.78515625,-40.0390625
1656409017361.2188,-91.796875,12.20703125,95.21484375,28.80859375,-23.92578125
1656409017365.125,-95.21484375,4.39453125,90.8203125,32.71484375,-75.1953125
1656409017369.0312,-75.1953125,-3.90625,75.1953125,45.41015625,-75.68359375
1656409017372.9375,-57.6171875,-12.6953125,52.24609375,50.29296875,-7.32421875
1656409017376.8438,-77.63671875,-20.5078125,42.48046875,27.34375,-15.625
1656409017380.75,-109.375,-29.78515625,39.0625,3.41796875,-79.58984375
1656409017384.6562,-113.28125,-20.01953125,43.9453125,5.859375,9.765625
1656409017388.5625,-86.9140625,-16.6015625,44.921875,23.4375,229.4921875
1656409017392.4688,-72.265625,-23.92578125,35.15625,47.8515625,185.05859375
1656409017396.375,-89.84375,-29.78515625,18.06640625,41.50390625,-30.76171875
1656409017400.2812,-111.328125,-42.96875,-1.46484375,-3.41796875,-122.55859375
1656409017404.1875,-82.03125,-43.45703125,-11.23046875,-15.625,90.33203125
1656409017408.0938,-71.77734375,-28.3203125,-21.97265625,7.8125,333.49609375
1656409017412,-106.93359375,-25.390625,-28.3203125,14.16015625,17.578125
1656409017415.9062,-105.95703125,-37.59765625,-27.83203125,0.9765625,-125.48828125
1656409017419.8125,-96.6796875,-37.59765625,-30.2734375,6.8359375,-46.875
1656409017423.7188,-112.3046875,-32.71484375,-32.71484375,-11.71875,-101.07421875
1656409017427.625,-103.515625,-44.43359375,-34.1796875,-22.4609375,-147.94921875
1656409017431.5312,-68.359375,-56.640625,-36.1328125,3.41796875,39.0625
1656409017435.4375,-76.171875,-63.4765625,-41.9921875,-12.20703125,294.43359375
1656409017439.3438,-103.02734375,-64.94140625,-42.96875,-36.62109375,156.25
1656409017443.25,-114.2578125,-58.59375,-39.55078125,-20.5078125,-56.15234375
1656409017447.1562,-143.5546875,-63.4765625,-41.9921875,-8.30078125,-70.3125
1656409017451.0625,-169.43359375,-76.66015625,-40.52734375,-16.6015625,52.734375
1656409017454.9688,-141.6015625,-55.17578125,-22.4609375,-6.34765625,-45.8984375
1656409017458.875,-68.359375,10.25390625,36.1328125,53.22265625,-163.0859375
1656409017462.7812,-19.53125,43.9453125,90.8203125,85.9375,-70.3125
1656409017466.6875,-22.4609375,40.0390625,95.703125,93.75,-15.625
1656409017470.5938,-0.9765625,39.55078125,94.23828125,113.28125,-84.9609375
1656409017474.5,1.953125,36.1328125,97.65625,103.02734375,-130.859375
1656409017478.4062,-19.53125,31.25,92.7734375,85.9375,51.26953125
1656409017482.3125,-18.06640625,38.57421875,86.9140625,79.1015625,121.58203125
1656409017486.2188,-21.97265625,34.1796875,83.49609375,82.03125,-75.68359375
1656409017490.125,-45.41015625,9.27734375,73.2421875,61.5234375,-107.91015625
1656409017494.0312,-65.4296875,-7.8125,57.6171875,24.4140625,96.19140625
1656409017497.9375,-68.84765625,-17.578125,48.33984375,18.06640625,93.26171875
1656409017501.8438,-59.08203125,-15.13671875,54.19921875,20.5078125,-56.15234375
1656409017505.75,-50.29296875,-3.41796875,65.4296875,40.0390625,-35.15625
1656409017509.6562,-20.01953125,26.3671875,83.0078125,83.984375,24.4140625
1656409017513.5625,11.71875,48.828125,97.16796875,96.6796875,6.34765625
1656409017517.4688,-0.9765625,38.0859375,94.23828125,74.21875,-98.6328125
1656409017521.375,-10.7421875,33.69140625,92.7734375,54.19921875,-91.796875
1656409017525.2812,5.859375,30.76171875,93.75,50.29296875,66.40625
1656409017529.1875,19.53125,23.4375,83.984375,65.4296875,95.21484375
1656409017533.0938,22.94921875,21.97265625,81.0546875,90.33203125,-69.82421875
1656409017537,32.71484375,19.53125,85.9375,86.9140625,-59.08203125
1656409017540.9062,28.3203125,15.13671875,89.84375,60.05859375,112.3046875
1656409017544.8125,14.6484375,4.8828125,83.984375,39.0625,-12.20703125
1656409017548.7188,39.0625,-2.9296875,68.359375,38.57421875,-138.671875
1656409017552.625,67.3828125,-6.34765625,56.15234375,47.8515625,-57.12890625
1656409017556.5312,62.98828125,-6.34765625,38.57421875,51.7578125,37.109375
1656409017560.4375,41.50390625,-3.41796875,28.80859375,44.43359375,65.4296875
1656409017564.3438,15.625,-12.20703125,33.203125,25.390625,-17.08984375
1656409017568.25,15.625,-11.71875,32.71484375,49.8046875,94.7265625
1656409017572.1562,29.78515625,1.46484375,30.2734375,75.68359375,208.0078125
1656409017576.0625,22.94921875,-4.39453125,38.57421875,52.734375,75.1953125
1656409017579.9688,-7.8125,-17.578125,36.1328125,8.30078125,-67.87109375
1656409017583.875,-25.390625,-25.87890625,31.25,4.39453125,47.8515625
1656409017587.7812,-37.59765625,-35.15625,18.5546875,17.08984375,206.54296875
1656409017591.6875,-50.29296875,-51.7578125,6.8359375,0,-58.10546875
1656409017595.5938,-46.875,-52.734375,1.953125,-13.18359375,-115.72265625
1656409017599.5,-47.8515625,-47.8515625,9.765625,-23.92578125,-57.6171875
1656409017603.4062,-45.8984375,-41.015625,19.04296875,-24.4140625,-85.44921875
1656409017607.3125,-42.48046875,-32.2265625,10.7421875,-11.23046875,-87.890625
1656409017611.2188,-46.875,-37.59765625,12.6953125,-1.953125,-60.05859375
1656409017615.125,-31.25,-36.62109375,24.90234375,14.16015625,-7.8125
1656409017619.0312,-14.16015625,-28.80859375,41.50390625,24.4140625,80.078125
1656409017622.9375,8.7890625,-18.5546875,63.96484375,9.27734375,39.0625
1656409017626.8438,52.734375,-15.625,69.82421875,20.99609375,21.484375
1656409017630.75,70.80078125,-14.16015625,66.40625,51.7578125,172.8515625
1656409017634.6562,62.5,-5.859375,72.75390625,56.15234375,63.96484375
1656409017638.5625,34.1796875,-4.8828125,86.9140625,23.4375,-108.88671875
1656409017642.4688,13.671875,-11.23046875,91.796875,17.578125,-24.4140625
1656409017646.375,12.20703125,-14.16015625,78.125,38.57421875,167.48046875
1656409017650.2812,12.6953125,-11.71875,65.4296875,62.01171875,29.78515625
1656409017654.1875,43.45703125,-2.44140625,60.546875,107.421875,-92.7734375
1656409017658.0938,66.89453125,0.48828125,54.19921875,90.8203125,-20.99609375
1656409017662,52.734375,-10.25390625,65.4296875,53.7109375,-28.80859375
1656409017665.9062,37.59765625,-5.37109375,74.21875,49.31640625,-68.359375
1656409017669.8125,56.15234375,-2.9296875,75.1953125,51.26953125,-54.6875
1656409017673.7188,60.05859375,-12.20703125,82.03125,56.640625,50.29296875
1656409017677.625,47.8515625,-16.11328125,73.73046875,48.33984375,72.75390625
1656409017681.5312,14.16015625,-34.66796875,52.24609375,20.99609375,-83.49609375
1656409017685.4375,-22.94921875,-49.8046875,27.83203125,5.859375,-111.81640625
1656409017689.3438,-32.71484375,-60.546875,23.92578125,9.27734375,5.859375
1656409017693.25,-31.73828125,-66.89453125,23.4375,17.578125,10.7421875
1656409017697.1562,-24.4140625,-58.59375,26.3671875,16.11328125,-70.3125
1656409017701.0625,-46.38671875,-57.12890625,27.34375,6.8359375,-119.140625
1656409017704.9688,-45.41015625,-65.91796875,18.5546875,20.99609375,129.8828125
1656409017708.875,-51.7578125,-75.1953125,10.25390625,20.99609375,262.20703125
1656409017712.7812,-80.078125,-107.421875,-18.06640625,-29.296875,54.19921875
1656409017716.6875,-106.4453125,-134.765625,-56.640625,-62.01171875,73.2421875
1656409017720.5938,-136.71875,-136.71875,-72.265625,-70.80078125,49.8046875
1656409017724.5,-145.5078125,-134.765625,-80.078125,-76.171875,-77.63671875
1656409017728.4062,-136.23046875,-129.8828125,-80.56640625,-54.19921875,-145.99609375
1656409017732.3125,-139.6484375,-120.60546875,-58.10546875,-44.921875,-60.05859375
1656409017736.2188,-120.1171875,-114.74609375,-47.8515625,-41.015625,289.0625
1656409017740.125,-93.75,-109.375,-49.8046875,-31.25,180.6640625
1656409017744.0312,-93.75,-97.16796875,-34.1796875,-14.16015625,-149.90234375
1656409017747.9375,-97.16796875,-90.8203125,-8.30078125,9.765625,-49.8046875
1656409017751.8438,-89.35546875,-90.8203125,4.8828125,16.11328125,3.90625
1656409017755.75,-62.5,-89.35546875,5.859375,21.97265625,-63.4765625
1656409017759.6562,-38.57421875,-80.078125,1.953125,28.80859375,-81.0546875
1656409017763.5625,-27.83203125,-70.80078125,1.46484375,29.296875,162.59765625
1656409017767.4688,-25.87890625,-71.77734375,-3.90625,36.62109375,272.94921875
1656409017771.375,-24.4140625,-76.66015625,-19.53125,29.78515625,-9.765625
1656409017775.2812,-34.66796875,-83.0078125,-37.109375,16.11328125,-44.921875
1656409017779.1875,-43.9453125,-82.51953125,-54.6875,19.04296875,-8.7890625
1656409017783.0938,-28.80859375,-82.51953125,-52.734375,19.04296875,-91.796875
1656409017787,-60.05859375,-90.33203125,-41.50390625,15.13671875,-148.4375
1656409017790.9062,-99.609375,-94.7265625,-36.62109375,27.34375,-48.828125
1656409017794.8125,-97.16796875,-90.33203125,-35.64453125,35.64453125,68.359375
1656409017798.7188,-90.33203125,-87.890625,-39.0625,33.203125,-30.76171875
1656409017802.625,-104.00390625,-85.44921875,-45.41015625,18.06640625,-132.32421875
1656409017806.5312,-116.2109375,-84.47265625,-59.08203125,20.01953125,-24.4140625
1656409017810.4375,-118.1640625,-100.09765625,-71.2890625,25.87890625,316.40625
1656409017814.3438,-109.375,-100.5859375,-61.03515625,10.25390625,191.40625
1656409017818.25,-87.890625,-92.7734375,-48.33984375,14.16015625,-149.90234375
1656409017822.1562,-82.03125,-92.28515625,-44.921875,29.296875,-52.24609375
1656409017826.0625,-82.03125,-90.8203125,-40.0390625,25.390625,26.85546875
1656409017829.9688,-94.23828125,-97.16796875,-39.0625,19.04296875,-67.3828125
1656409017833.875,-117.1875,-103.02734375,-55.6640625,14.16015625,-95.21484375
1656409017837.7812,-106.93359375,-100.5859375,-72.75390625,22.4609375,-70.80078125
1656409017841.6875,-87.890625,-104.98046875,-84.9609375,10.25390625,-57.12890625
1656409017845.5938,-87.890625,-107.91015625,-98.14453125,13.671875,-76.171875
1656409017849.5,-64.94140625,-110.3515625,-96.6796875,34.66796875,-75.1953125
1656409017853.4062,-61.03515625,-119.140625,-95.21484375,27.83203125,151.3671875
1656409017857.3125,-59.08203125,-123.046875,-99.609375,20.99609375,295.8984375
1656409017861.2188,-31.73828125,-115.234375,-95.703125,31.73828125,60.546875
1656409017865.125,-30.76171875,-110.83984375,-92.28515625,27.83203125,-126.46484375
1656409017869.0312,-55.17578125,-120.1171875,-92.7734375,6.34765625,102.05078125
1656409017872.9375,-66.89453125,-128.90625,-103.02734375,5.859375,161.62109375
1656409017876.8438,-63.4765625,-128.90625,-106.4453125,-12.6953125,-144.53125
1656409017880.75,-73.73046875,-129.8828125,-96.19140625,-27.34375,-138.18359375
1656409017884.6562,-73.73046875,-136.23046875,-97.65625,-13.671875,-44.43359375
1656409017888.5625,-44.43359375,-134.27734375,-103.515625,13.18359375,-59.08203125
1656409017892.4688,-34.1796875,-134.27734375,-105.46875,1.953125,-88.8671875
1656409017896.375,-46.875,-143.5546875,-100.09765625,-36.62109375,-19.04296875
1656409017900.2812,-47.8515625,-150.87890625,-86.9140625,-37.59765625,56.15234375
1656409017904.1875,-31.25,-135.25390625,-78.125,-19.04296875,19.04296875
1656409017908.0938,-11.23046875,-122.0703125,-73.2421875,-9.765625,-34.66796875
1656409017912,20.5078125,-125.9765625,-71.2890625,13.671875,-39.55078125
1656409017915.9062,35.64453125,-123.046875,-62.01171875,24.90234375,222.65625
1656409017919.8125,34.1796875,-111.328125,-61.03515625,18.5546875,154.296875
1656409017923.7188,46.875,-106.4453125,-66.40625,28.80859375,-145.99609375
1656409017927.625,42.96875,-123.53515625,-81.54296875,6.8359375,-64.94140625
1656409017931.5312,28.3203125,-131.8359375,-100.5859375,-20.99609375,-34.1796875
1656409017935.4375,48.828125,-119.62890625,-107.421875,5.859375,-63.4765625
1656409017939.3438,50.29296875,-113.28125,-102.5390625,6.34765625,-91.796875
1656409017943.25,41.015625,-109.375,-86.42578125,-1.46484375,-26.3671875
1656409017947.1562,62.5,-96.19140625,-64.453125,17.08984375,45.41015625
1656409017951.0625,70.80078125,-84.9609375,-47.8515625,23.92578125,25.87890625
1656409017954.9688,79.1015625,-80.56640625,-44.43359375,38.57421875,-31.25
1656409017958.875,89.35546875,-80.56640625,-48.828125,50.78125,89.84375
1656409017962.7812,63.4765625,-83.0078125,-56.15234375,37.59765625,192.3828125
1656409017966.6875,47.36328125,-93.26171875,-63.96484375,33.69140625,20.5078125
1656409017970.5938,41.50390625,-104.00390625,-71.77734375,35.15625,40.0390625
1656409017974.5,45.8984375,-101.07421875,-64.94140625,37.59765625,67.3828125
1656409017978.4062,37.109375,-105.46875,-49.31640625,40.0390625,-8.30078125
1656409017982.3125,8.30078125,-110.3515625,-40.0390625,23.92578125,-125.9765625
1656409017986.2188,17.08984375,-108.3984375,-42.48046875,18.06640625,-41.9921875
1656409017990.125,8.7890625,-117.67578125,-53.7109375,8.30078125,12.6953125
1656409017994.0312,-21.484375,-139.6484375,-77.63671875,-12.20703125,38.0859375
1656409017997.9375,-27.83203125,-146.484375,-97.16796875,-15.13671875,52.24609375
1656409018001.8438,-20.5078125,-138.671875,-92.7734375,-0.48828125,-26.3671875
1656409018005.75,-35.64453125,-137.20703125,-89.35546875,11.23046875,186.5234375
1656409018009.6562,-48.828125,-134.27734375,-93.75,3.41796875,97.16796875
1656409018013.5625,-32.2265625,-136.71875,-93.75,1.953125,-159.1796875
1656409018017.4688,-29.296875,-138.671875,-93.75,-3.41796875,-85.9375
1656409018021.375,-25.390625,-141.11328125,-94.23828125,0.9765625,-65.4296875
1656409018025.2812,-28.80859375,-153.80859375,-118.1640625,-14.16015625,-29.78515625
1656409018029.1875,-26.3671875,-149.4140625,-137.6953125,-20.99609375,-18.06640625
1656409018033.0938,-39.0625,-135.7421875,-130.859375,-0.48828125,66.89453125
1656409018037,-62.5,-128.90625,-109.86328125,-12.6953125,191.89453125
1656409018040.9062,-46.875,-113.76953125,-90.33203125,-14.16015625,53.7109375
1656409018044.8125,-47.8515625,-104.00390625,-78.125,5.859375,-52.734375
1656409018048.7188,-50.29296875,-97.16796875,-67.87109375,26.3671875,116.69921875
1656409018052.625,-47.36328125,-96.6796875,-76.171875,26.85546875,169.43359375
1656409018056.5312,-38.57421875,-99.12109375,-90.33203125,23.4375,-106.4453125
1656409018060.4375,-29.78515625,-94.7265625,-98.14453125,30.76171875,-160.15625
1656409018064.3438,-55.17578125,-95.703125,-97.65625,24.90234375,-32.2265625
1656409018068.25,-80.56640625,-95.21484375,-94.7265625,6.8359375,42.48046875
1656409018072.1562,-69.3359375,-88.8671875,-98.6328125,6.8359375,-83.0078125
1656409018076.0625,-56.15234375,-85.44921875,-94.23828125,27.34375,-105.95703125
1656409018079.9688,-58.59375,-69.82421875,-75.1953125,48.828125,-30.76171875
1656409018083.875,-72.75390625,-55.17578125,-52.24609375,51.26953125,-61.5234375
1656409018087.7812,-117.67578125,-44.43359375,-37.109375,53.7109375,25.390625
1656409018091.6875,-149.4140625,-30.2734375,-31.73828125,70.3125,88.37890625
1656409018095.5938,-147.94921875,-19.04296875,-28.3203125,80.56640625,295.8984375
1656409018099.5,-142.578125,-8.7890625,-12.20703125,87.890625,281.25
1656409018103.4062,-167.48046875,1.953125,-3.41796875,90.33203125,-104.00390625
1656409018107.3125,-186.03515625,12.6953125,-0.9765625,101.5625,-108.88671875
1656409018111.2188,-168.45703125,19.53125,20.99609375,115.72265625,-66.40625
1656409018115.125,-150.390625,18.06640625,42.96875,114.2578125,-122.0703125
1656409018119.0312,-161.1328125,13.671875,42.48046875,103.515625,-130.37109375
1656409018122.9375,-151.85546875,17.578125,43.45703125,114.74609375,-60.546875
1656409018126.8438,-129.39453125,27.83203125,57.6171875,137.6953125,-33.69140625
1656409018130.75,-133.7890625,22.4609375,60.546875,118.65234375,-98.14453125
1656409018134.6562,-154.296875,11.23046875,53.7109375,98.6328125,41.50390625
1656409018138.5625,-173.828125,13.671875,50.78125,97.16796875,163.0859375
1656409018142.4688,-170.41015625,13.671875,41.015625,88.37890625,85.9375
1656409018146.375,-153.3203125,10.25390625,37.109375,85.9375,-20.5078125
1656409018150.2812,-143.5546875,5.859375,39.55078125,79.1015625,-103.515625
1656409018154.1875,-141.11328125,0.48828125,38.0859375,76.171875,3.90625
1656409018158.0938,-148.92578125,5.859375,39.0625,76.171875,12.6953125
1656409018162,-140.13671875,-3.90625,43.9453125,64.94140625,-109.375
1656409018165.9062,-121.58203125,-18.06640625,45.41015625,55.6640625,-175.78125
1656409018169.8125,-107.421875,-17.08984375,38.0859375,78.125,109.86328125
1656409018173.7188,-86.9140625,-2.9296875,27.34375,92.7734375,325.68359375
1656409018177.625,-90.33203125,1.46484375,26.85546875,64.453125,-3.90625
1656409018181.5312,-111.81640625,-9.765625,33.203125,47.8515625,-49.8046875
1656409018185.4375,-117.1875,-15.13671875,30.76171875,45.8984375,170.8984375
1656409018189.3438,-133.30078125,-27.34375,13.671875,44.921875,10.25390625
1656409018193.25,-136.71875,-37.109375,0.48828125,59.08203125,-158.203125
1656409018197.1562,-113.28125,-36.62109375,3.90625,60.05859375,-9.765625
1656409018201.0625,-101.5625,-36.1328125,-1.46484375,39.0625,62.01171875
1656409018204.9688,-107.91015625,-36.62109375,-13.18359375,22.4609375,-22.94921875
1656409018208.875,-104.4921875,-39.55078125,-12.6953125,15.625,-128.41796875
1656409018212.7812,-118.1640625,-65.4296875,-27.34375,4.8828125,-4.39453125
1656409018216.6875,-123.53515625,-71.2890625,-43.45703125,-1.953125,76.66015625
1656409018220.5938,-112.79296875,-53.22265625,-36.62109375,-13.671875,-60.546875
1656409018224.5,-134.27734375,-62.5,-39.0625,-23.92578125,-116.69921875
1656409018228.4062,-149.90234375,-71.77734375,-42.48046875,-12.20703125,50.78125
1656409018232.3125,-138.671875,-59.5703125,-38.57421875,7.32421875,199.70703125
1656409018236.2188,-132.32421875,-43.9453125,-34.66796875,7.8125,32.71484375
1656409018240.125,-138.671875,-47.36328125,-38.0859375,-25.87890625,-162.109375
1656409018244.0312,-136.71875,-55.17578125,-44.43359375,-39.55078125,56.15234375
1656409018247.9375,-127.9296875,-65.4296875,-58.10546875,-24.4140625,174.8046875
1656409018251.8438,-113.76953125,-63.4765625,-61.03515625,0.48828125,-78.61328125
1656409018255.75,-105.95703125,-46.38671875,-51.7578125,12.20703125,-122.0703125
1656409018259.6562,-114.74609375,-41.50390625,-56.640625,-8.7890625,-40.52734375
1656409018263.5625,-116.69921875,-43.45703125,-69.82421875,-18.06640625,-21.97265625
1656409018267.4688,-104.98046875,-39.55078125,-69.82421875,2.9296875,-110.3515625
1656409018271.375,-104.98046875,-38.0859375,-64.94140625,9.765625,-85.44921875
1656409018275.2812,-129.8828125,-39.55078125,-70.3125,0.48828125,277.34375
1656409018279.1875,-148.4375,-39.55078125,-70.80078125,-12.6953125,283.203125
1656409018283.0938,-148.92578125,-44.43359375,-68.359375,-25.87890625,-71.77734375
1656409018287,-134.765625,-48.828125,-75.68359375,-17.08984375,-56.15234375
1656409018290.9062,-104.4921875,-51.7578125,-77.1484375,1.46484375,112.79296875
1656409018294.8125,-110.83984375,-64.453125,-83.0078125,-24.4140625,16.6015625
1656409018298.7188,-119.62890625,-86.9140625,-99.609375,-65.91796875,-86.9140625
1656409018302.625,-112.3046875,-106.4453125,-113.28125,-61.5234375,-23.92578125
1656409018306.5312,-94.7265625,-119.62890625,-129.8828125,-48.828125,6.34765625
1656409018310.4375,-99.12109375,-121.58203125,-149.90234375,-50.29296875,-81.0546875
1656409018314.3438,-137.20703125,-126.953125,-171.875,-63.96484375,-110.3515625
1656409018318.25,-143.5546875,-139.16015625,-186.5234375,-85.44921875,-44.43359375
1656409018322.1562,-140.625,-136.71875,-178.22265625,-73.73046875,51.26953125
1656409018326.0625,-137.6953125,-130.37109375,-166.9921875,-60.546875,85.44921875
1656409018329.9688,-125.9765625,-126.46484375,-159.1796875,-59.5703125,20.5078125
1656409018333.875,-113.28125,-125,-146.97265625,-55.6640625,165.52734375
1656409018337.7812,-107.91015625,-120.60546875,-146.97265625,-59.08203125,372.0703125
1656409018341.6875,-121.09375,-115.72265625,-149.4140625,-69.82421875,56.15234375
1656409018345.5938,-111.81640625,-106.93359375,-137.20703125,-70.3125,-120.60546875
1656409018349.5,-86.42578125,-93.75,-128.90625,-37.59765625,13.18359375
1656409018353.4062,-62.98828125,-84.47265625,-121.58203125,-9.27734375,-18.06640625
1656409018357.3125,-62.5,-73.2421875,-107.421875,-16.11328125,-97.16796875
1656409018361.2188,-75.68359375,-61.5234375,-97.16796875,-30.2734375,-57.12890625
1656409018365.125,-91.30859375,-66.40625,-100.09765625,-41.9921875,-27.83203125
1656409018369.0312,-93.75,-73.73046875,-105.46875,-33.69140625,26.85546875
1656409018372.9375,-73.73046875,-69.82421875,-92.7734375,3.90625,140.13671875
1656409018376.8438,-72.75390625,-64.453125,-82.51953125,-1.953125,51.7578125
1656409018380.75,-84.47265625,-66.40625,-79.58984375,-26.3671875,246.58203125
1656409018384.6562,-80.56640625,-65.91796875,-72.75390625,-24.4140625,258.7890625
1656409018388.5625,-63.96484375,-60.546875,-68.359375,-6.34765625,-129.39453125
1656409018392.4688,-57.12890625,-64.94140625,-73.2421875,11.23046875,-85.9375
1656409018396.375,-79.1015625,-77.1484375,-64.94140625,-15.13671875,-41.9921875
1656409018400.2812,-100.5859375,-78.125,-47.8515625,-40.52734375,-166.50390625
1656409018404.1875,-94.23828125,-76.171875,-45.41015625,-44.921875,-139.16015625
1656409018408.0938,-83.49609375,-81.54296875,-37.59765625,-34.1796875,-36.1328125
1656409018412,-87.40234375,-81.54296875,-40.52734375,-23.92578125,-15.625
1656409018415.9062,-101.5625,-82.51953125,-57.6171875,-32.2265625,58.10546875
1656409018419.8125,-132.32421875,-79.58984375,-67.87109375,-47.8515625,28.80859375
1656409018423.7188,-146.484375,-81.54296875,-70.3125,-51.26953125,97.65625
1656409018427.625,-133.7890625,-82.03125,-66.40625,-18.5546875,199.21875
1656409018431.5312,-143.5546875,-86.42578125,-76.66015625,-20.01953125,-35.64453125
1656409018435.4375,-174.8046875,-97.16796875,-87.890625,-59.5703125,-65.4296875
1656409018439.3438,-187.5,-103.515625,-94.23828125,-76.171875,52.734375
1656409018443.25,-173.828125,-104.4921875,-100.5859375,-76.171875,-9.27734375
1656409018447.1562,-170.8984375,-97.65625,-93.75,-63.4765625,-99.609375
1656409018451.0625,-177.24609375,-92.7734375,-84.47265625,-44.921875,-34.1796875
1656409018454.9688,-181.15234375,-89.84375,-77.63671875,-41.9921875,4.8828125
1656409018458.875,-177.734375,-91.796875,-77.1484375,-52.734375,-54.19921875
1656409018462.7812,-144.04296875,-94.7265625,-75.68359375,-50.78125,-33.69140625
1656409018466.6875,-112.3046875,-78.125,-71.2890625,-20.01953125,45.41015625
1656409018470.5938,-91.30859375,-64.94140625,-70.3125,-7.32421875,118.65234375
1656409018474.5,-85.9375,-74.70703125,-76.66015625,-33.69140625,23.92578125
1656409018478.4062,-100.5859375,-81.0546875,-76.66015625,-54.19921875,-139.16015625
1656409018482.3125,-101.5625,-81.0546875,-61.5234375,-38.57421875,-84.47265625
1656409018486.2188,-84.9609375,-71.77734375,-54.19921875,-12.6953125,109.86328125
1656409018490.125,-92.28515625,-71.2890625,-52.734375,2.9296875,27.34375
1656409018494.0312,-92.28515625,-75.68359375,-45.41015625,0.9765625,-41.015625
1656409018497.9375,-102.05078125,-77.1484375,-46.875,-23.4375,99.12109375
1656409018501.8438,-118.1640625,-81.54296875,-56.15234375,-35.15625,68.84765625
1656409018505.75,-104.4921875,-77.63671875,-54.6875,-21.97265625,-83.984375
1656409018509.6562,-107.91015625,-76.66015625,-41.015625,-8.30078125,-24.4140625
1656409018513.5625,-118.65234375,-72.265625,-26.3671875,-15.625,232.421875
1656409018517.4688,-122.55859375,-58.59375,-10.25390625,-3.90625,157.2265625
1656409018521.375,-121.58203125,-51.7578125,1.953125,7.32421875,-132.32421875
1656409018525.2812,-118.1640625,-55.17578125,-11.71875,-13.18359375,-150.87890625
1656409018529.1875,-106.4453125,-51.7578125,-14.6484375,-11.23046875,91.796875
1656409018533.0938,-84.9609375,-50.29296875,-5.37109375,3.90625,155.76171875
1656409018537,-84.47265625,-62.5,-11.23046875,-5.859375,-122.0703125
1656409018540.9062,-88.8671875,-71.77734375,-19.53125,-23.4375,-131.8359375
1656409018544.8125,-108.88671875,-80.078125,-33.69140625,-56.15234375,-88.8671875
1656409018548.7188,-112.79296875,-93.26171875,-47.8515625,-62.5,-94.23828125
1656409018552.625,-89.84375,-96.6796875,-53.7109375,-34.66796875,-41.015625
1656409018556.5312,-75.68359375,-93.75,-52.24609375,-13.18359375,55.17578125
1656409018560.4375,-86.42578125,-94.7265625,-48.33984375,-19.53125,334.47265625
1656409018564.3438,-95.21484375,-93.75,-40.0390625,-37.59765625,302.734375
1656409018568.25,-71.2890625,-88.8671875,-33.203125,-31.25,-113.28125
1656409018572.1562,-36.62109375,-84.47265625,-37.59765625,-19.04296875,-62.98828125
1656409018576.0625,-20.5078125,-82.03125,-41.9921875,-2.44140625,50.78125
1656409018579.9688,-34.1796875,-84.47265625,-44.43359375,-5.859375,-62.01171875
1656409018583.875,-54.19921875,-85.44921875,-35.64453125,-20.01953125,-163.57421875
1656409018587.7812,-50.29296875,-70.3125,-19.04296875,-12.6953125,-48.33984375
1656409018591.6875,-29.296875,-59.08203125,-15.625,10.7421875,11.23046875
1656409018595.5938,-19.53125,-59.5703125,-7.8125,18.5546875,-69.3359375
1656409018599.5,-20.5078125,-64.453125,-3.90625,-2.9296875,-117.1875
1656409018603.4062,-28.3203125,-73.2421875,-5.859375,-20.99609375,60.546875
1656409018607.3125,-45.8984375,-76.66015625,-16.11328125,-28.3203125,191.89453125
1656409018611.2188,-55.6640625,-76.66015625,-24.90234375,-25.87890625,88.8671875
1656409018615.125,-66.89453125,-80.078125,-14.16015625,-31.25,40.0390625
1656409018619.0312,-78.125,-88.8671875,-5.37109375,-41.50390625,200.1953125
1656409018622.9375,-72.265625,-90.8203125,-0.48828125,-44.921875,246.58203125
1656409018626.8438,-79.1015625,-98.14453125,10.7421875,-51.7578125,-57.6171875
1656409018630.75,-129.39453125,-114.2578125,12.6953125,-55.6640625,-132.8125
1656409018634.6562,-147.94921875,-115.72265625,3.41796875,-43.45703125,-67.3828125
1656409018638.5625,-130.37109375,-108.3984375,8.30078125,-29.296875,-74.70703125
1656409018642.4688,-130.37109375,-108.3984375,27.83203125,-31.73828125,-111.328125
1656409018646.375,-137.6953125,-112.79296875,36.1328125,-39.55078125,-63.96484375
1656409018650.2812,-145.01953125,-118.1640625,43.9453125,-35.15625,-6.34765625
1656409018654.1875,-137.6953125,-116.2109375,60.546875,-9.27734375,32.71484375
1656409018658.0938,-114.74609375,-107.421875,75.1953125,20.99609375,-39.0625
1656409018662,-92.28515625,-101.5625,82.51953125,30.76171875,-88.8671875
1656409018665.9062,-107.421875,-104.4921875,85.9375,8.30078125,123.046875
1656409018669.8125,-117.1875,-111.81640625,87.40234375,0,127.44140625
1656409018673.7188,-109.375,-114.2578125,83.984375,7.32421875,-32.2265625
1656409018677.625,-100.09765625,-117.67578125,92.28515625,14.6484375,-12.20703125
1656409018681.5312,-88.8671875,-118.65234375,87.890625,19.04296875,56.15234375
1656409018685.4375,-80.078125,-111.81640625,72.265625,13.18359375,-80.078125
1656409018689.3438,-72.75390625,-105.95703125,66.89453125,18.06640625,-118.1640625
1656409018693.25,-69.3359375,-104.4921875,64.94140625,23.92578125,12.6953125
1656409018697.1562,-64.94140625,-106.4453125,63.96484375,20.01953125,94.23828125
1656409018701.0625,-93.26171875,-109.86328125,61.03515625,-6.34765625,-0.48828125
1656409018704.9688,-95.21484375,-108.88671875,68.84765625,-14.6484375,-71.77734375
1656409018708.875,-83.0078125,-106.4453125,72.75390625,-2.9296875,23.92578125
1656409018712.7812,-95.703125,-107.91015625,67.3828125,-6.8359375,5.859375
1656409018716.6875,-86.9140625,-108.88671875,75.1953125,-8.30078125,-86.9140625
1656409018720.5938,-85.9375,-103.02734375,82.03125,-3.41796875,-84.47265625
1656409018724.5,-100.09765625,-98.6328125,77.63671875,-6.8359375,112.79296875
1656409018728.4062,-83.49609375,-90.8203125,83.984375,13.671875,225.5859375
1656409018732.3125,-63.96484375,-70.3125,97.65625,25.87890625,22.94921875
1656409018736.2188,-63.96484375,-55.17578125,107.421875,0,-87.890625
1656409018740.125,-74.21875,-52.734375,110.83984375,-8.30078125,135.25390625
1656409018744.0312,-75.68359375,-45.8984375,113.76953125,0.48828125,223.6328125
1656409018747.9375,-68.359375,-40.52734375,110.83984375,6.8359375,42.48046875
1656409018751.8438,-59.08203125,-45.41015625,102.5390625,23.4375,19.53125
1656409018755.75,-68.84765625,-40.52734375,101.07421875,16.6015625,163.57421875
1656409018759.6562,-64.94140625,-18.06640625,117.1875,7.8125,89.84375
1656409018763.5625,-46.875,-6.34765625,142.08984375,24.90234375,-155.2734375
1656409018767.4688,-42.48046875,-4.8828125,164.55078125,36.1328125,-52.24609375
1656409018771.375,-36.1328125,-10.7421875,175.78125,49.8046875,-37.109375
1656409018775.2812,-26.3671875,-13.18359375,173.828125,67.3828125,-142.578125
1656409018779.1875,-20.01953125,-1.953125,163.0859375,60.05859375,-140.13671875
1656409018783.0938,-23.4375,-0.9765625,145.99609375,42.96875,-48.33984375
1656409018787,-9.27734375,-1.46484375,139.16015625,51.26953125,67.87109375
1656409018790.9062,3.41796875,-2.9296875,135.25390625,51.7578125,40.0390625
1656409018794.8125,-17.578125,-18.5546875,107.91015625,20.5078125,-1.46484375
1656409018798.7188,-41.015625,-52.734375,69.82421875,-20.01953125,188.4765625
1656409018802.625,-67.87109375,-76.66015625,41.50390625,-40.0390625,214.35546875
1656409018806.5312,-66.89453125,-62.5,49.31640625,-17.08984375,-50.78125
1656409018810.4375,-44.43359375,-49.8046875,62.98828125,-2.44140625,-112.79296875
1656409018814.3438,-52.24609375,-63.4765625,56.640625,-23.92578125,160.15625
1656409018818.25,-68.84765625,-63.96484375,62.98828125,-30.76171875,247.0703125
1656409018822.1562,-75.1953125,-65.91796875,63.96484375,-27.83203125,-109.86328125
1656409018826.0625,-80.078125,-76.66015625,48.828125,-25.87890625,-111.81640625
1656409018829.9688,-92.28515625,-71.2890625,41.9921875,-18.06640625,18.06640625
1656409018833.875,-97.65625,-64.453125,46.38671875,-20.5078125,-57.6171875
1656409018837.7812,-101.5625,-64.453125,48.33984375,-39.55078125,3.90625
1656409018841.6875,-115.72265625,-72.265625,44.43359375,-66.40625,46.38671875
1656409018845.5938,-124.51171875,-74.21875,44.43359375,-60.05859375,267.08984375
1656409018849.5,-107.91015625,-67.3828125,42.48046875,-27.34375,284.1796875
1656409018853.4062,-104.4921875,-69.3359375,31.73828125,-23.4375,-94.23828125
1656409018857.3125,-131.8359375,-82.51953125,21.484375,-43.45703125,-94.7265625
1656409018861.2188,-139.6484375,-86.9140625,6.34765625,-61.5234375,-44.43359375
1656409018865.125,-134.765625,-90.8203125,-2.44140625,-55.17578125,-125.9765625
1656409018869.0312,-140.13671875,-97.16796875,-8.30078125,-47.36328125,-153.80859375
1656409018872.9375,-155.76171875,-102.5390625,-14.16015625,-55.6640625,-66.89453125
1656409018876.8438,-166.50390625,-109.375,-10.25390625,-44.43359375,-37.109375
1656409018880.75,-168.45703125,-108.88671875,-7.8125,-52.24609375,-105.46875
1656409018884.6562,-174.8046875,-100.09765625,8.30078125,-66.40625,-64.453125
1656409018888.5625,-188.96484375,-94.7265625,5.859375,-56.15234375,236.328125
1656409018892.4688,-185.546875,-97.16796875,-20.5078125,-57.12890625,362.79296875
1656409018896.375,-180.6640625,-95.21484375,-27.83203125,-51.7578125,8.30078125
1656409018900.2812,-187.5,-91.30859375,-2.44140625,-56.15234375,-120.60546875
1656409018904.1875,-190.91796875,-89.35546875,7.32421875,-82.51953125,4.8828125
1656409018908.0938,-187.98828125,-93.26171875,0.9765625,-84.47265625,18.06640625
1656409018912,-169.43359375,-91.30859375,-2.44140625,-81.0546875,-119.62890625
1656409018915.9062,-169.921875,-90.8203125,-5.859375,-91.30859375,-110.3515625
1656409018919.8125,-173.33984375,-88.37890625,-21.484375,-87.40234375,-5.859375
1656409018923.7188,-164.0625,-72.265625,-21.97265625,-69.82421875,-31.73828125
1656409018927.625,-157.2265625,-65.91796875,-10.7421875,-48.33984375,-74.21875
1656409018931.5312,-142.08984375,-59.5703125,-22.94921875,-37.109375,-12.20703125
1656409018935.4375,-124.51171875,-56.640625,-35.15625,-38.0859375,367.67578125
1656409018939.3438,-140.625,-58.10546875,-35.15625,-53.22265625,370.1171875
1656409018943.25,-169.43359375,-59.5703125,-38.57421875,-66.89453125,-89.35546875
1656409018947.1562,-169.43359375,-65.91796875,-46.875,-49.31640625,-102.5390625
1656409018951.0625,-154.78515625,-67.87109375,-48.828125,-24.4140625,-41.015625
1656409018954.9688,-145.5078125,-66.40625,-41.50390625,-12.6953125,-92.7734375
1656409018958.875,-142.08984375,-67.3828125,-38.0859375,-18.06640625,-139.16015625
1656409018962.7812,-130.859375,-74.21875,-36.1328125,-25.390625,-25.87890625
1656409018966.6875,-116.69921875,-78.61328125,-25.87890625,-10.25390625,56.640625
1656409018970.5938,-131.8359375,-84.47265625,-16.6015625,-15.13671875,-26.3671875
1656409018974.5,-145.01953125,-92.7734375,-8.7890625,-42.96875,-84.47265625
1656409018978.4062,-129.8828125,-88.37890625,-1.46484375,-48.828125,87.40234375
1656409018982.3125,-157.2265625,-88.8671875,-5.859375,-48.828125,267.578125
1656409018986.2188,-182.12890625,-84.47265625,-5.37109375,-47.36328125,23.4375
1656409018990.125,-161.1328125,-75.1953125,8.7890625,-35.15625,-107.91015625
1656409018994.0312,-140.13671875,-70.80078125,16.6015625,-32.2265625,29.78515625
1656409018997.9375,-108.3984375,-56.640625,22.4609375,-32.71484375,15.625
1656409019001.8438,-97.65625,-48.33984375,23.4375,-31.25,-172.36328125
1656409019005.75,-115.234375,-61.5234375,5.859375,-41.50390625,-128.41796875
1656409019009.6562,-132.8125,-83.0078125,-16.6015625,-53.7109375,-6.8359375
1656409019013.5625,-143.5546875,-83.984375,-40.0390625,-55.17578125,-10.25390625
1656409019017.4688,-146.484375,-81.0546875,-50.29296875,-53.7109375,-81.54296875
1656409019021.375,-153.3203125,-70.3125,-43.9453125,-42.48046875,-22.94921875
1656409019025.2812,-166.015625,-64.94140625,-39.55078125,-45.8984375,129.8828125
1656409019029.1875,-161.1328125,-66.40625,-46.875,-75.1953125,104.98046875
1656409019033.0938,-133.30078125,-62.5,-45.41015625,-78.125,-43.9453125
1656409019037,-96.6796875,-61.5234375,-38.0859375,-73.2421875,-61.03515625
1656409019040.9062,-108.3984375,-57.12890625,-29.78515625,-55.6640625,222.16796875
1656409019044.8125,-132.8125,-54.6875,-20.01953125,-42.48046875,101.07421875
1656409019048.7188,-127.9296875,-56.15234375,-18.06640625,-47.36328125,-130.37109375
1656409019052.625,-111.328125,-54.6875,-12.20703125,-43.45703125,-22.4609375
1656409019056.5312,-116.69921875,-62.5,-16.11328125,-50.78125,17.578125
1656409019060.4375,-125.48828125,-71.2890625,-26.3671875,-47.8515625,-57.12890625
1656409019064.3438,-119.62890625,-72.75390625,-28.3203125,-31.73828125,-101.07421875
1656409019068.25,-138.671875,-73.73046875,-42.96875,-29.296875,-41.9921875
1656409019072.1562,-164.0625,-78.125,-79.1015625,-30.76171875,67.3828125
1656409019076.0625,-183.59375,-83.0078125,-102.05078125,-43.9453125,148.4375
1656409019079.9688,-198.73046875,-88.8671875,-106.93359375,-60.546875,39.0625
1656409019083.875,-172.8515625,-80.078125,-89.84375,-45.41015625,111.328125
1656409019087.7812,-133.30078125,-53.7109375,-53.7109375,-20.99609375,334.9609375
1656409019091.6875,-124.51171875,-38.57421875,-26.85546875,-11.71875,75.1953125
1656409019095.5938,-131.34765625,-39.55078125,-23.92578125,-20.01953125,-92.7734375
1656409019099.5,-140.625,-41.015625,-26.3671875,-51.26953125,-66.40625
1656409019103.4062,-137.20703125,-43.45703125,-20.99609375,-70.3125,-80.078125
1656409019107.3125,-135.25390625,-40.0390625,-18.06640625,-60.05859375,-80.56640625
1656409019111.2188,-117.67578125,-35.64453125,-20.99609375,-43.9453125,-51.26953125
1656409019115.125,-98.6328125,-35.64453125,-25.87890625,-38.57421875,-5.859375
1656409019119.0312,-107.91015625,-33.69140625,-22.4609375,-39.55078125,84.47265625
1656409019122.9375,-119.62890625,-38.0859375,-19.04296875,-54.6875,87.40234375
1656409019126.8438,-126.953125,-45.41015625,-13.18359375,-60.546875,48.828125
1656409019130.75,-155.2734375,-65.4296875,-25.87890625,-67.3828125,259.765625
1656409019134.6562,-179.19921875,-85.9375,-40.52734375,-96.19140625,136.23046875
1656409019138.5625,-178.22265625,-104.4921875,-47.8515625,-112.3046875,-123.046875
1656409019142.4688,-166.9921875,-115.72265625,-46.38671875,-102.5390625,-8.30078125
1656409019146.375,-171.875,-121.09375,-31.73828125,-95.703125,30.76171875
1656409019150.2812,-184.5703125,-119.140625,-15.625,-95.21484375,-92.7734375
1656409019154.1875,-181.15234375,-119.62890625,-14.6484375,-100.09765625,-111.328125
1656409019158.0938,-178.22265625,-119.62890625,-19.04296875,-98.6328125,-55.6640625
1656409019162,-175.78125,-101.5625,-6.8359375,-76.66015625,-49.8046875
1656409019165.9062,-168.45703125,-84.9609375,-9.765625,-50.78125,13.18359375
1656409019169.8125,-154.78515625,-73.73046875,-8.7890625,-30.76171875,111.81640625
1656409019173.7188,-152.83203125,-74.70703125,1.46484375,-39.0625,209.9609375
1656409019177.625,-172.36328125,-77.63671875,10.7421875,-68.84765625,241.2109375
1656409019181.5312,-187.5,-72.75390625,29.78515625,-89.35546875,-33.69140625
1656409019185.4375,-165.0390625,-73.2421875,33.69140625,-94.7265625,-109.86328125
1656409019189.3438,-132.8125,-74.70703125,21.484375,-87.40234375,-41.9921875
1656409019193.25,-131.8359375,-74.21875,1.953125,-77.63671875,-56.15234375
1656409019197.1562,-134.765625,-71.2890625,-3.90625,-72.265625,-26.3671875
1656409019201.0625,-138.671875,-70.80078125,-9.765625,-78.125,20.5078125
1656409019204.9688,-146.97265625,-84.47265625,-28.80859375,-87.40234375,39.55078125
1656409019208.875,-146.484375,-99.12109375,-46.38671875,-90.8203125,24.4140625
1656409019212.7812,-133.7890625,-100.09765625,-48.33984375,-84.47265625,-8.30078125
1656409019216.6875,-123.046875,-95.21484375,-36.62109375,-92.7734375,30.2734375
1656409019220.5938,-124.51171875,-96.6796875,-35.15625,-112.79296875,126.46484375
1656409019224.5,-118.65234375,-95.21484375,-35.64453125,-98.6328125,-4.8828125
1656409019228.4062,-110.83984375,-94.7265625,-28.3203125,-68.359375,-183.10546875
