time,TP9,AF7,AF8,TP10,AUX
1656409123208.875,44.921875,-52.24609375,-190.4296875,43.45703125,-121.09375
1656409123212.7812,45.8984375,-40.52734375,-193.84765625,32.71484375,-94.23828125
1656409123216.6875,-24.4140625,-51.7578125,-192.3828125,-24.90234375,-62.98828125
1656409123220.5938,-35.15625,-53.22265625,-195.80078125,-20.01953125,16.6015625
1656409123224.5,-7.32421875,-54.6875,-187.01171875,12.6953125,-76.171875
1656409123228.4062,-9.27734375,-61.03515625,-189.453125,1.46484375,115.72265625
1656409123232.3125,-21.484375,-57.6171875,-169.43359375,-16.6015625,427.24609375
1656409123236.2188,-26.85546875,-58.10546875,-141.6015625,-29.78515625,38.0859375
1656409123240.125,-39.55078125,-62.01171875,-156.25,-28.3203125,-163.57421875
1656409123244.0312,-35.64453125,-66.40625,-167.96875,-19.53125,79.1015625
1656409123247.9375,-17.578125,-64.94140625,-145.01953125,-11.71875,17.578125
1656409123251.8438,-2.44140625,-60.05859375,-135.7421875,-3.41796875,-171.875
1656409123255.75,9.765625,-55.6640625,-145.01953125,-4.39453125,-105.95703125
1656409123259.6562,7.32421875,-45.41015625,-134.27734375,-3.41796875,-33.203125
1656409123263.5625,12.6953125,-36.1328125,-130.37109375,12.6953125,-28.80859375
1656409123267.4688,9.27734375,-32.71484375,-136.23046875,12.6953125,-53.22265625
1656409123271.375,-2.44140625,-31.25,-147.4609375,9.765625,-49.8046875
1656409123275.2812,-14.16015625,-30.76171875,-147.4609375,-5.859375,60.05859375
1656409123279.1875,-10.7421875,-26.85546875,-132.32421875,2.9296875,57.12890625
1656409123283.0938,-12.20703125,-18.5546875,-120.60546875,24.4140625,47.8515625
1656409123287,-21.484375,-16.6015625,-126.953125,19.53125,25.390625
1656409123290.9062,-13.671875,-17.08984375,-138.18359375,11.23046875,205.56640625
1656409123294.8125,-9.765625,-15.13671875,-107.421875,6.8359375,87.890625
1656409123298.7188,-10.25390625,-18.06640625,-91.796875,13.671875,-163.57421875
1656409123302.625,-11.23046875,-19.04296875,-92.7734375,25.390625,-75.68359375
1656409123306.5312,-5.37109375,-17.578125,-88.37890625,37.109375,-44.43359375
1656409123310.4375,2.9296875,-19.04296875,-98.6328125,20.99609375,-108.88671875
1656409123314.3438,1.953125,-18.06640625,-104.98046875,1.46484375,-74.70703125
1656409123318.25,-2.44140625,-19.53125,-110.3515625,4.39453125,-0.48828125
1656409123322.1562,-3.41796875,-18.5546875,-112.3046875,3.90625,43.9453125
1656409123326.0625,1.953125,-17.08984375,-108.3984375,9.27734375,127.44140625
1656409123329.9688,2.9296875,-15.13671875,-106.4453125,14.16015625,-22.94921875
1656409123333.875,1.953125,-11.71875,-122.0703125,4.8828125,87.890625
1656409123337.7812,2.9296875,-13.671875,-97.16796875,18.06640625,301.26953125
1656409123341.6875,5.37109375,-11.23046875,-66.40625,23.92578125,2.9296875
1656409123345.5938,-1.46484375,-9.765625,-86.42578125,17.578125,-62.01171875
1656409123349.5,8.30078125,-13.671875,-101.5625,22.94921875,70.80078125
1656409123353.4062,22.4609375,-19.04296875,-62.01171875,36.62109375,1.46484375
1656409123357.3125,10.7421875,-24.4140625,-31.73828125,55.17578125,-120.1171875
1656409123361.2188,25.87890625,-21.97265625,-33.69140625,63.96484375,-94.7265625
1656409123365.125,35.64453125,-11.23046875,-36.62109375,57.12890625,91.796875
1656409123369.0312,11.71875,-4.39453125,-53.7109375,23.4375,54.19921875
1656409123372.9375,20.01953125,-7.32421875,-63.96484375,22.94921875,2.44140625
1656409123376.8438,52.734375,-8.30078125,-56.15234375,51.26953125,43.9453125
1656409123380.75,66.89453125,-2.9296875,-54.6875,68.84765625,246.09375
1656409123384.6562,69.3359375,9.27734375,-39.55078125,73.2421875,72.265625
1656409123388.5625,77.1484375,15.625,-48.33984375,66.40625,-131.8359375
1656409123392.4688,55.17578125,6.8359375,-76.66015625,61.03515625,-59.08203125
1656409123396.375,40.0390625,4.8828125,-79.58984375,72.75390625,21.97265625
1656409123400.2812,63.96484375,9.765625,-87.890625,101.07421875,-33.203125
1656409123404.1875,83.984375,2.9296875,-119.140625,103.515625,-106.93359375
1656409123408.0938,91.796875,-6.8359375,-140.625,92.7734375,-0.9765625
1656409123412,73.73046875,-7.8125,-127.9296875,77.63671875,48.33984375
1656409123415.9062,55.17578125,-11.71875,-121.09375,72.265625,41.9921875
1656409123419.8125,68.84765625,-16.6015625,-108.3984375,80.56640625,32.2265625
1656409123423.7188,99.12109375,-11.23046875,-104.4921875,95.21484375,156.25
1656409123427.625,97.65625,-5.37109375,-90.8203125,93.26171875,227.05078125
1656409123431.5312,75.1953125,-8.30078125,-72.75390625,76.171875,-26.85546875
1656409123435.4375,69.82421875,-8.7890625,-82.03125,72.265625,-116.69921875
1656409123439.3438,67.3828125,-5.859375,-78.61328125,72.75390625,-18.06640625
1656409123443.25,60.546875,-9.765625,-72.265625,73.73046875,-36.1328125
1656409123447.1562,47.8515625,-19.04296875,-75.68359375,61.5234375,-148.4375
1656409123451.0625,42.96875,-29.296875,-83.0078125,43.45703125,-125
1656409123454.9688,45.8984375,-26.3671875,-75.68359375,40.0390625,65.91796875
1656409123458.875,38.0859375,-23.4375,-61.03515625,39.55078125,25.390625
1656409123462.7812,38.0859375,-27.83203125,-59.08203125,47.36328125,12.6953125
1656409123466.6875,47.36328125,-30.76171875,-62.5,54.6875,79.58984375
1656409123470.5938,39.0625,-27.34375,-71.77734375,48.33984375,291.9921875
1656409123474.5,19.53125,-24.90234375,-38.57421875,53.7109375,222.65625
1656409123478.4062,27.34375,-28.80859375,-29.78515625,94.7265625,-72.265625
1656409123482.3125,20.01953125,-33.203125,-46.38671875,86.9140625,-68.84765625
1656409123486.2188,5.37109375,-32.2265625,-33.69140625,40.52734375,-39.55078125
1656409123490.125,1.46484375,-37.59765625,-33.203125,27.83203125,-108.3984375
1656409123494.0312,1.953125,-41.50390625,-40.0390625,17.08984375,-148.92578125
1656409123497.9375,12.20703125,-38.57421875,-37.59765625,15.13671875,-83.0078125
1656409123501.8438,12.6953125,-38.0859375,-20.5078125,25.390625,-48.828125
1656409123505.75,6.34765625,-38.0859375,-21.484375,23.92578125,-62.01171875
1656409123509.6562,-1.953125,-40.0390625,-27.34375,16.6015625,-13.671875
1656409123513.5625,-3.41796875,-38.57421875,-25.87890625,33.203125,204.1015625
1656409123517.4688,3.41796875,-36.1328125,-1.953125,48.828125,378.90625
1656409123521.375,4.39453125,-37.109375,37.109375,45.8984375,28.3203125
1656409123525.2812,15.13671875,-40.0390625,30.76171875,56.640625,-115.72265625
1656409123529.1875,18.06640625,-39.55078125,7.32421875,56.640625,90.33203125
1656409123533.0938,18.06640625,-38.0859375,19.53125,42.48046875,20.99609375
1656409123537,35.64453125,-36.62109375,30.2734375,43.45703125,-116.2109375
1656409123540.9062,50.29296875,-36.62109375,20.01953125,45.8984375,-114.2578125
1656409123544.8125,35.15625,-40.0390625,21.97265625,34.66796875,-33.203125
1656409123548.7188,21.97265625,-41.9921875,17.578125,29.78515625,-64.94140625
1656409123552.625,23.4375,-41.50390625,14.16015625,35.64453125,-159.66796875
1656409123556.5312,25.390625,-41.015625,0.9765625,29.78515625,9.27734375
1656409123560.4375,36.1328125,-41.9921875,-5.859375,38.0859375,321.2890625
1656409123564.3438,30.2734375,-36.62109375,22.4609375,47.8515625,103.02734375
1656409123568.25,21.484375,-41.50390625,21.97265625,40.52734375,-128.41796875
1656409123572.1562,18.06640625,-49.31640625,6.8359375,32.71484375,20.5078125
1656409123576.0625,11.23046875,-45.41015625,13.671875,29.296875,106.4453125
1656409123579.9688,31.25,-36.1328125,31.25,30.2734375,-77.1484375
1656409123583.875,47.36328125,-37.109375,24.4140625,31.73828125,-151.85546875
1656409123587.7812,49.31640625,-40.52734375,10.25390625,29.78515625,-70.3125
1656409123591.6875,61.03515625,-42.48046875,12.6953125,22.94921875,-103.02734375
1656409123595.5938,51.26953125,-42.48046875,14.16015625,28.3203125,-168.45703125
1656409123599.5,29.78515625,-40.52734375,4.39453125,36.1328125,-165.0390625
1656409123603.4062,37.59765625,-41.015625,-9.765625,41.015625,2.44140625
1656409123607.3125,41.015625,-41.015625,-1.46484375,26.85546875,92.7734375
1656409123611.2188,34.1796875,-44.921875,6.34765625,16.6015625,-92.28515625
1656409123615.125,44.921875,-47.8515625,-14.16015625,40.52734375,-125
1656409123619.0312,45.8984375,-44.921875,-21.484375,51.7578125,93.75
1656409123622.9375,20.5078125,-51.26953125,2.44140625,20.01953125,80.56640625
1656409123626.8438,13.18359375,-56.15234375,4.8828125,5.37109375,-119.140625
1656409123630.75,9.765625,-60.546875,-13.671875,7.32421875,-9.27734375
1656409123634.6562,13.671875,-61.03515625,-19.53125,20.5078125,151.3671875
1656409123638.5625,15.625,-55.6640625,-2.44140625,29.78515625,21.97265625
1656409123642.4688,15.13671875,-50.29296875,-7.8125,26.85546875,-77.1484375
1656409123646.375,21.97265625,-43.9453125,-20.01953125,38.57421875,-57.12890625
1656409123650.2812,10.25390625,-43.45703125,-20.5078125,27.34375,88.37890625
1656409123654.1875,0.9765625,-43.45703125,-13.671875,18.06640625,139.16015625
1656409123658.0938,12.20703125,-41.9921875,-4.8828125,20.01953125,-52.24609375
1656409123662,17.578125,-41.50390625,-20.5078125,15.625,-35.64453125
1656409123665.9062,16.11328125,-34.66796875,-20.99609375,17.08984375,204.1015625
1656409123669.8125,18.5546875,-29.296875,3.41796875,7.32421875,8.7890625
1656409123673.7188,7.8125,-33.69140625,-5.37109375,6.34765625,-122.55859375
1656409123677.625,3.90625,-36.62109375,-22.4609375,12.6953125,-17.08984375
1656409123681.5312,12.6953125,-32.71484375,-2.44140625,19.53125,81.54296875
1656409123685.4375,20.5078125,-31.73828125,-6.8359375,16.6015625,-0.48828125
1656409123689.3438,28.3203125,-34.1796875,-38.57421875,3.41796875,-52.734375
1656409123693.25,40.52734375,-32.2265625,-36.1328125,8.7890625,36.1328125
1656409123697.1562,35.15625,-25.87890625,-25.390625,27.83203125,162.59765625
1656409123701.0625,16.6015625,-21.97265625,-20.99609375,33.203125,95.21484375
1656409123704.9688,6.34765625,-25.390625,-26.3671875,15.625,-66.89453125
1656409123708.875,1.953125,-30.76171875,-49.31640625,12.6953125,52.734375
1656409123712.7812,-11.23046875,-30.2734375,-32.71484375,8.7890625,139.6484375
1656409123716.6875,-21.484375,-27.83203125,-16.11328125,-5.859375,-125.9765625
1656409123720.5938,-16.6015625,-23.92578125,-27.34375,11.23046875,-151.85546875
1656409123724.5,-13.18359375,-21.484375,-26.85546875,20.5078125,11.23046875
1656409123728.4062,-4.39453125,-22.94921875,-28.3203125,8.30078125,-23.4375
1656409123732.3125,-10.7421875,-23.92578125,-34.66796875,3.41796875,-132.32421875
1656409123736.2188,-27.83203125,-27.34375,-35.15625,1.953125,-82.51953125
1656409123740.125,-32.2265625,-24.90234375,-33.69140625,7.8125,-5.37109375
1656409123744.0312,-28.80859375,-25.390625,-41.50390625,9.765625,8.30078125
1656409123747.9375,-28.80859375,-33.203125,-40.52734375,-1.46484375,20.01953125
1656409123751.8438,-33.203125,-37.109375,-44.921875,-12.6953125,9.27734375
1656409123755.75,-23.4375,-34.1796875,-60.546875,-6.34765625,233.3984375
1656409123759.6562,-8.30078125,-25.87890625,-25.390625,-3.41796875,165.0390625
1656409123763.5625,-13.671875,-20.99609375,-19.53125,-3.90625,-109.86328125
1656409123767.4688,-20.5078125,-17.578125,-38.57421875,4.39453125,-94.23828125
1656409123771.375,-20.5078125,-15.13671875,-30.2734375,4.39453125,-97.16796875
1656409123775.2812,-15.13671875,-21.97265625,-31.73828125,0.48828125,-147.4609375
1656409123779.1875,-10.25390625,-24.90234375,-38.0859375,1.953125,-97.16796875
1656409123783.0938,-5.859375,-27.34375,-37.59765625,8.7890625,-33.203125
1656409123787,9.27734375,-31.73828125,-34.66796875,7.32421875,-40.52734375
1656409123790.9062,22.94921875,-32.2265625,-44.43359375,-8.30078125,-0.9765625
1656409123794.8125,20.5078125,-29.78515625,-32.71484375,-10.25390625,14.6484375
1656409123798.7188,5.37109375,-28.80859375,-32.71484375,1.46484375,156.25
1656409123802.625,-2.9296875,-28.3203125,-24.90234375,8.7890625,241.69921875
1656409123806.5312,28.80859375,-23.4375,-11.23046875,21.97265625,-6.8359375
1656409123810.4375,35.15625,-22.4609375,-24.4140625,29.296875,-104.00390625
1656409123814.3438,-8.7890625,-31.73828125,-32.71484375,-4.8828125,57.6171875
1656409123818.25,-9.27734375,-31.73828125,-4.8828125,-15.625,36.62109375
1656409123822.1562,-6.8359375,-26.85546875,-3.90625,1.46484375,-89.84375
1656409123826.0625,-20.99609375,-29.78515625,-22.94921875,0.9765625,-92.7734375
1656409123829.9688,-35.15625,-33.69140625,-20.5078125,-15.625,-52.734375
1656409123833.875,-47.36328125,-29.296875,-23.92578125,-31.73828125,-91.796875
1656409123837.7812,-44.43359375,-31.73828125,-33.203125,-23.4375,-53.7109375
1656409123841.6875,-41.50390625,-28.3203125,-35.64453125,0.9765625,104.00390625
1656409123845.5938,-45.8984375,-22.4609375,-41.50390625,4.39453125,301.26953125
1656409123849.5,-45.8984375,-21.484375,-21.484375,-4.39453125,112.79296875
1656409123853.4062,-47.36328125,-21.484375,-22.94921875,-8.7890625,-104.4921875
1656409123857.3125,-40.0390625,-20.01953125,-33.203125,-11.71875,-76.66015625
1656409123861.2188,-16.11328125,-17.578125,-24.90234375,-7.8125,-13.18359375
1656409123865.125,-11.23046875,-17.08984375,-22.4609375,-5.859375,56.15234375
1656409123869.0312,-19.53125,-20.5078125,-24.90234375,-3.41796875,-98.6328125
1656409123872.9375,-22.4609375,-23.92578125,-23.92578125,-3.41796875,-86.42578125
1656409123876.8438,-21.97265625,-15.625,-11.23046875,2.9296875,61.03515625
1656409123880.75,-14.6484375,-10.7421875,-12.6953125,11.23046875,-41.50390625
1656409123884.6562,-6.8359375,-14.6484375,-20.99609375,-6.34765625,-42.96875
1656409123888.5625,-4.8828125,-20.5078125,-38.0859375,-8.7890625,203.125
1656409123892.4688,-13.18359375,-17.08984375,-30.76171875,-1.46484375,376.953125
1656409123896.375,-32.71484375,-11.71875,-7.32421875,-14.16015625,31.73828125
1656409123900.2812,-39.55078125,-12.20703125,-21.97265625,-5.859375,-129.39453125
1656409123904.1875,-37.109375,-13.671875,-23.92578125,5.37109375,-20.5078125
1656409123908.0938,-30.2734375,-9.765625,-15.13671875,-6.34765625,-103.515625
1656409123912,-21.484375,-13.671875,-20.01953125,-14.6484375,-176.26953125
1656409123915.9062,-17.08984375,-20.5078125,-23.92578125,-13.18359375,-109.86328125
1656409123919.8125,-11.71875,-16.6015625,-18.06640625,-0.48828125,18.5546875
1656409123923.7188,-13.18359375,-11.23046875,-16.6015625,0.9765625,47.36328125
1656409123927.625,-6.8359375,-16.11328125,-22.4609375,-7.8125,-63.4765625
1656409123931.5312,-3.41796875,-19.04296875,-38.0859375,-9.27734375,15.13671875
1656409123935.4375,-1.953125,-20.01953125,-46.38671875,0.48828125,319.3359375
1656409123939.3438,-9.27734375,-21.97265625,-3.41796875,14.16015625,250.48828125
1656409123943.25,-29.78515625,-25.87890625,4.8828125,17.578125,-56.15234375
1656409123947.1562,-52.734375,-31.25,-20.01953125,5.37109375,-86.9140625
1656409123951.0625,-59.5703125,-27.34375,-15.13671875,-11.71875,-81.54296875
1656409123954.9688,-61.5234375,-23.4375,-12.20703125,-24.90234375,-124.0234375
1656409123958.875,-62.5,-27.34375,-11.71875,-13.671875,-143.06640625
1656409123962.7812,-46.38671875,-23.4375,-8.7890625,-0.48828125,-37.59765625
1656409123966.6875,-39.55078125,-19.53125,1.46484375,-10.25390625,-9.765625
1656409123970.5938,-43.9453125,-20.5078125,0.48828125,-18.5546875,-119.62890625
1656409123974.5,-42.48046875,-16.6015625,-10.25390625,-19.53125,-109.375
1656409123978.4062,-35.15625,-14.6484375,-19.53125,-6.8359375,124.51171875
1656409123982.3125,-32.71484375,-13.671875,-9.765625,1.46484375,136.71875
1656409123986.2188,-23.92578125,-12.20703125,-2.44140625,-3.90625,-25.87890625
1656409123990.125,-17.578125,-18.06640625,-15.13671875,-3.41796875,-66.40625
1656409123994.0312,-20.01953125,-26.85546875,-39.55078125,-13.671875,108.3984375
1656409123997.9375,-13.18359375,-23.92578125,-20.01953125,-6.34765625,217.7734375
1656409124001.8438,-5.37109375,-17.578125,1.46484375,0,-69.3359375
1656409124005.75,-9.765625,-22.94921875,-13.18359375,-10.25390625,-101.5625
1656409124009.6562,-12.20703125,-25.87890625,-25.390625,-10.25390625,9.765625
1656409124013.5625,-17.578125,-25.390625,-36.62109375,-16.11328125,-70.3125
1656409124017.4688,-18.06640625,-22.94921875,-37.59765625,-12.20703125,-113.28125
1656409124021.375,-17.578125,-22.4609375,-12.6953125,0,-68.359375
1656409124025.2812,-28.80859375,-25.390625,-3.90625,-1.46484375,78.61328125
1656409124029.1875,-33.203125,-28.80859375,-10.25390625,-5.37109375,81.0546875
1656409124033.0938,-16.6015625,-35.15625,-16.11328125,-9.27734375,-115.234375
1656409124037,-12.6953125,-38.0859375,-27.83203125,-4.8828125,-75.68359375
1656409124040.9062,-26.3671875,-40.0390625,-35.15625,5.37109375,383.30078125
1656409124044.8125,-32.2265625,-39.55078125,-5.859375,-1.953125,261.23046875
1656409124048.7188,-31.73828125,-39.55078125,-8.7890625,-22.94921875,-106.93359375
1656409124052.625,-42.96875,-47.8515625,-25.87890625,-20.01953125,-77.1484375
1656409124056.5312,-38.0859375,-54.19921875,-15.625,-15.625,-16.6015625
1656409124060.4375,-20.5078125,-56.640625,-13.671875,-7.8125,-90.8203125
1656409124064.3438,-23.92578125,-62.5,-19.04296875,5.37109375,-129.39453125
1656409124068.25,-20.99609375,-64.453125,-37.109375,0,-44.43359375
1656409124072.1562,-15.13671875,-67.87109375,-41.50390625,-15.625,38.0859375
1656409124076.0625,-19.04296875,-75.1953125,-29.78515625,-15.625,62.01171875
1656409124079.9688,-4.8828125,-72.265625,-10.7421875,-3.41796875,-77.1484375
1656409124083.875,1.953125,-72.265625,-28.80859375,-1.46484375,80.56640625
1656409124087.7812,-11.71875,-71.77734375,-22.4609375,-10.7421875,289.55078125
1656409124091.6875,-9.27734375,-62.98828125,-0.48828125,-20.01953125,-70.80078125
1656409124095.5938,-3.41796875,-64.94140625,-18.06640625,-14.16015625,-133.30078125
1656409124099.5,1.46484375,-62.5,-16.11328125,-6.8359375,146.97265625
1656409124103.4062,13.18359375,-58.10546875,5.859375,2.44140625,23.92578125
1656409124107.3125,15.625,-58.10546875,3.90625,7.32421875,-148.92578125
1656409124111.2188,8.30078125,-60.05859375,-12.6953125,-5.37109375,-106.4453125
1656409124115.125,-0.9765625,-63.4765625,-17.578125,-12.20703125,-32.2265625
1656409124119.0312,0,-59.5703125,-13.18359375,-3.41796875,48.33984375
1656409124122.9375,5.37109375,-56.15234375,-11.23046875,4.39453125,121.09375
1656409124126.8438,16.6015625,-59.5703125,-17.08984375,1.46484375,66.89453125
1656409124130.75,16.6015625,-59.08203125,-36.1328125,-6.34765625,221.6796875
1656409124134.6562,3.90625,-53.7109375,-15.13671875,1.953125,93.75
1656409124138.5625,-17.08984375,-83.0078125,-43.45703125,-26.3671875,-113.28125
1656409124142.4688,-56.15234375,-129.39453125,-110.3515625,-71.2890625,-74.70703125
1656409124146.375,-79.58984375,-139.16015625,-112.79296875,-74.21875,-39.55078125
1656409124150.2812,-81.54296875,-135.25390625,-118.1640625,-72.75390625,-87.890625
1656409124154.1875,-76.171875,-129.8828125,-157.2265625,-85.44921875,-141.6015625
1656409124158.0938,-66.89453125,-126.953125,-169.43359375,-90.33203125,23.92578125
1656409124162,-67.87109375,-127.44140625,-148.92578125,-87.40234375,90.33203125
1656409124165.9062,-68.359375,-129.39453125,-150.390625,-86.42578125,-83.984375
1656409124169.8125,-70.3125,-127.9296875,-155.2734375,-88.8671875,-32.71484375
1656409124173.7188,-70.3125,-117.1875,-144.04296875,-91.796875,90.8203125
1656409124177.625,-60.546875,-105.46875,-120.1171875,-81.0546875,-13.671875
1656409124181.5312,-55.6640625,-98.6328125,-108.88671875,-59.08203125,-143.5546875
1656409124185.4375,-68.359375,-96.19140625,-113.28125,-57.6171875,-125.9765625
1656409124189.3438,-79.58984375,-93.26171875,-134.765625,-62.01171875,132.8125
1656409124193.25,-68.359375,-85.9375,-112.3046875,-72.265625,154.78515625
1656409124197.1562,-62.5,-77.1484375,-94.23828125,-72.75390625,-122.55859375
1656409124201.0625,-71.77734375,-73.2421875,-104.98046875,-50.29296875,-94.23828125
1656409124204.9688,-74.21875,-67.3828125,-93.75,-35.15625,-5.37109375
1656409124208.875,-76.171875,-64.453125,-97.16796875,-43.9453125,-71.77734375
1656409124212.7812,-75.1953125,-69.82421875,-102.5390625,-49.8046875,-52.24609375
1656409124216.6875,-64.453125,-69.82421875,-88.8671875,-36.62109375,84.47265625
1656409124220.5938,-65.4296875,-71.77734375,-89.35546875,-23.92578125,395.5078125
1656409124224.5,-74.70703125,-70.80078125,-60.546875,-33.203125,269.04296875
1656409124228.4062,-75.68359375,-68.84765625,-61.5234375,-47.36328125,-139.6484375
1656409124232.3125,-74.21875,-72.75390625,-80.56640625,-49.31640625,-121.58203125
1656409124236.2188,-62.5,-67.87109375,-68.359375,-52.24609375,-67.87109375
1656409124240.125,-48.828125,-67.3828125,-58.59375,-35.64453125,-143.5546875
1656409124244.0312,-61.03515625,-72.75390625,-59.08203125,-26.3671875,-166.015625
1656409124247.9375,-77.63671875,-69.82421875,-68.359375,-44.921875,-69.82421875
1656409124251.8438,-76.171875,-64.453125,-67.3828125,-54.6875,-22.4609375
1656409124255.75,-73.73046875,-66.40625,-77.63671875,-50.78125,-112.3046875
1656409124259.6562,-72.75390625,-67.87109375,-77.63671875,-44.43359375,-89.35546875
1656409124263.5625,-65.91796875,-66.89453125,-87.890625,-36.1328125,217.28515625
1656409124267.4688,-63.96484375,-68.359375,-77.1484375,-29.296875,301.26953125
1656409124271.375,-58.10546875,-72.75390625,-63.96484375,-37.109375,-55.17578125
1656409124275.2812,-50.78125,-74.70703125,-86.9140625,-44.921875,-57.12890625
1656409124279.1875,-49.31640625,-66.40625,-94.7265625,-36.62109375,89.35546875
1656409124283.0938,-39.55078125,-60.05859375,-70.80078125,-31.25,5.859375
1656409124287,-38.0859375,-59.5703125,-67.87109375,-37.109375,-151.3671875
1656409124290.9062,-49.31640625,-52.24609375,-80.56640625,-45.8984375,-144.04296875
1656409124294.8125,-58.59375,-48.33984375,-76.171875,-41.50390625,38.0859375
1656409124298.7188,-40.0390625,-47.8515625,-59.08203125,-35.15625,3.90625
1656409124302.625,-24.4140625,-49.8046875,-68.359375,-37.59765625,-173.33984375
1656409124306.5312,-43.45703125,-56.640625,-93.26171875,-46.875,26.85546875
1656409124310.4375,-61.03515625,-59.08203125,-98.14453125,-48.33984375,383.30078125
1656409124314.3438,-55.6640625,-50.78125,-68.84765625,-45.41015625,74.70703125
1656409124318.25,-52.24609375,-49.8046875,-76.66015625,-37.109375,-187.98828125
1656409124322.1562,-50.78125,-50.78125,-89.35546875,-28.3203125,-39.0625
1656409124326.0625,-59.08203125,-43.45703125,-76.66015625,-37.59765625,23.4375
1656409124329.9688,-63.96484375,-43.9453125,-80.078125,-49.31640625,-66.89453125
1656409124333.875,-62.98828125,-48.828125,-95.21484375,-56.15234375,-94.7265625
1656409124337.7812,-54.19921875,-41.50390625,-86.9140625,-38.57421875,-43.45703125
1656409124341.6875,-71.2890625,-45.41015625,-59.08203125,-43.9453125,-0.48828125
1656409124345.5938,-78.125,-57.12890625,-55.6640625,-57.12890625,-90.33203125
1656409124349.5,-65.4296875,-56.15234375,-70.80078125,-53.22265625,-115.234375
1656409124353.4062,-60.546875,-51.7578125,-91.30859375,-50.78125,33.203125
1656409124357.3125,-52.734375,-47.36328125,-88.37890625,-45.8984375,103.515625
1656409124361.2188,-62.98828125,-46.38671875,-64.94140625,-43.9453125,4.8828125
1656409124365.125,-84.9609375,-55.6640625,-75.1953125,-48.828125,-96.6796875
1656409124369.0312,-86.9140625,-62.5,-98.14453125,-41.50390625,56.15234375
1656409124372.9375,-78.125,-62.5,-71.77734375,-41.015625,98.6328125
1656409124376.8438,-79.1015625,-62.5,-64.453125,-45.41015625,-114.2578125
1656409124380.75,-76.66015625,-63.96484375,-82.03125,-38.0859375,-120.60546875
1656409124384.6562,-59.08203125,-58.10546875,-77.63671875,-39.55078125,-13.671875
1656409124388.5625,-59.08203125,-53.22265625,-80.078125,-52.734375,-30.76171875
1656409124392.4688,-64.94140625,-58.59375,-80.56640625,-64.94140625,-32.71484375
1656409124396.375,-55.6640625,-62.98828125,-81.54296875,-67.3828125,-21.97265625
1656409124400.2812,-53.22265625,-67.3828125,-90.33203125,-56.15234375,274.90234375
1656409124404.1875,-59.08203125,-72.75390625,-77.1484375,-42.48046875,185.05859375
1656409124408.0938,-62.5,-71.77734375,-73.73046875,-50.78125,-160.15625
1656409124412,-62.98828125,-67.87109375,-84.47265625,-60.05859375,-73.2421875
1656409124415.9062,-70.3125,-73.2421875,-82.51953125,-68.359375,141.11328125
1656409124419.8125,-66.89453125,-73.2421875,-68.84765625,-68.359375,-82.03125
1656409124423.7188,-62.01171875,-72.75390625,-72.75390625,-62.01171875,-180.17578125
1656409124427.625,-60.546875,-68.359375,-87.890625,-68.359375,-31.73828125
1656409124431.5312,-71.2890625,-61.5234375,-84.9609375,-65.91796875,-30.2734375
1656409124435.4375,-97.16796875,-67.3828125,-81.0546875,-64.94140625,-108.3984375
1656409124439.3438,-89.84375,-66.40625,-80.078125,-58.59375,-126.953125
1656409124443.25,-77.1484375,-69.3359375,-86.9140625,-49.31640625,-20.5078125
1656409124447.1562,-89.35546875,-76.171875,-94.23828125,-55.17578125,106.93359375
1656409124451.0625,-91.30859375,-76.66015625,-95.703125,-66.40625,106.93359375
1656409124454.9688,-70.3125,-77.1484375,-92.7734375,-76.66015625,-59.5703125
1656409124458.875,-47.36328125,-75.1953125,-95.703125,-52.734375,51.7578125
1656409124462.7812,-41.015625,-76.66015625,-96.19140625,-44.43359375,351.07421875
1656409124466.6875,-45.41015625,-83.984375,-83.984375,-67.3828125,48.828125
1656409124470.5938,-55.6640625,-88.37890625,-89.84375,-43.45703125,-163.57421875
1656409124474.5,-40.0390625,-85.9375,-91.796875,-54.6875,-77.63671875
1656409124478.4062,-41.9921875,-85.44921875,-76.66015625,-70.80078125,-99.12109375
1656409124482.3125,-59.5703125,-83.49609375,-73.73046875,-52.734375,-117.1875
1656409124486.2188,-65.91796875,-73.2421875,-82.51953125,-70.3125,-88.37890625
1656409124490.125,-74.70703125,-74.70703125,-81.0546875,-80.56640625,-40.0390625
1656409124494.0312,-87.890625,-88.37890625,-86.9140625,-80.078125,0.48828125
1656409124497.9375,-85.9375,-93.26171875,-87.40234375,-85.9375,29.296875
1656409124501.8438,-81.0546875,-92.28515625,-84.47265625,-71.77734375,28.3203125
1656409124505.75,-83.984375,-91.30859375,-99.609375,-45.41015625,233.3984375
1656409124509.6562,-69.82421875,-91.796875,-83.49609375,-42.48046875,173.828125
1656409124513.5625,-64.453125,-90.33203125,-71.77734375,-56.640625,-72.75390625
1656409124517.4688,-71.2890625,-90.33203125,-85.9375,-62.5,-59.5703125
1656409124521.375,-58.10546875,-97.16796875,-78.125,-51.7578125,14.16015625
1656409124525.2812,-61.5234375,-101.5625,-85.44921875,-51.7578125,-89.35546875
1656409124529.1875,-61.03515625,-96.6796875,-95.703125,-61.03515625,-151.85546875
1656409124533.0938,-55.17578125,-99.609375,-97.16796875,-66.40625,-104.00390625
1656409124537,-63.96484375,-101.5625,-86.42578125,-63.96484375,-67.3828125
1656409124540.9062,-66.40625,-102.5390625,-80.56640625,-58.10546875,-22.94921875
1656409124544.8125,-72.75390625,-109.86328125,-84.47265625,-59.08203125,-6.8359375
1656409124548.7188,-82.03125,-105.95703125,-100.5859375,-62.5,89.35546875
1656409124552.625,-83.0078125,-92.7734375,-81.54296875,-65.91796875,211.42578125
1656409124556.5312,-81.0546875,-88.8671875,-59.08203125,-62.98828125,-43.9453125
1656409124560.4375,-58.10546875,-90.33203125,-71.77734375,-57.12890625,-125.48828125
1656409124564.3438,-53.22265625,-89.35546875,-78.61328125,-50.78125,41.50390625
1656409124568.25,-80.56640625,-85.9375,-78.61328125,-51.26953125,-3.41796875
1656409124572.1562,-93.26171875,-84.9609375,-76.66015625,-73.2421875,-120.60546875
1656409124576.0625,-81.54296875,-85.9375,-81.54296875,-72.75390625,-78.125
1656409124579.9688,-66.89453125,-83.49609375,-78.61328125,-63.96484375,63.96484375
1656409124583.875,-52.734375,-79.1015625,-74.70703125,-62.98828125,-18.06640625
1656409124587.7812,-57.12890625,-82.03125,-78.125,-62.01171875,-19.53125
1656409124591.6875,-59.08203125,-83.49609375,-82.51953125,-62.01171875,155.2734375
1656409124595.5938,-43.9453125,-82.03125,-97.16796875,-55.17578125,339.84375
1656409124599.5,-29.296875,-72.75390625,-71.77734375,-45.8984375,201.171875
1656409124603.4062,-15.625,-67.87109375,-66.89453125,-49.31640625,-78.61328125
1656409124607.3125,-29.296875,-77.1484375,-75.68359375,-53.22265625,-67.87109375
1656409124611.2188,-37.59765625,-81.0546875,-60.546875,-53.7109375,-60.546875
1656409124615.125,-34.1796875,-75.68359375,-55.6640625,-56.15234375,-109.375
1656409124619.0312,-38.0859375,-81.0546875,-66.89453125,-62.01171875,-139.16015625
1656409124622.9375,-47.36328125,-85.9375,-83.984375,-58.10546875,-72.265625
1656409124626.8438,-56.640625,-83.984375,-77.63671875,-55.17578125,67.87109375
1656409124630.75,-52.24609375,-86.42578125,-71.2890625,-63.96484375,3.90625
1656409124634.6562,-50.78125,-85.44921875,-77.63671875,-68.84765625,-41.015625
1656409124638.5625,-52.24609375,-85.44921875,-85.44921875,-59.08203125,164.0625
1656409124642.4688,-63.96484375,-84.9609375,-83.0078125,-43.45703125,377.9296875
1656409124646.375,-63.96484375,-81.0546875,-56.640625,-44.921875,59.08203125
1656409124650.2812,-75.1953125,-85.44921875,-59.5703125,-51.7578125,-120.60546875
1656409124654.1875,-94.23828125,-87.890625,-66.89453125,-40.52734375,-28.3203125
1656409124658.0938,-85.9375,-84.9609375,-58.10546875,-38.0859375,-100.5859375
1656409124662,-78.125,-86.42578125,-60.05859375,-46.38671875,-166.015625
1656409124665.9062,-79.1015625,-86.9140625,-58.59375,-43.45703125,-139.6484375
1656409124669.8125,-85.44921875,-81.54296875,-54.19921875,-50.78125,-36.62109375
1656409124673.7188,-93.75,-83.0078125,-50.29296875,-48.33984375,-81.54296875
1656409124677.625,-78.125,-86.42578125,-52.24609375,-39.55078125,-159.1796875
1656409124681.5312,-62.01171875,-85.44921875,-69.3359375,-41.015625,-56.15234375
1656409124685.4375,-69.3359375,-90.8203125,-75.1953125,-50.78125,189.94140625
1656409124689.3438,-88.37890625,-94.7265625,-70.80078125,-76.171875,100.09765625
1656409124693.25,-99.12109375,-100.09765625,-72.265625,-88.8671875,-128.90625
1656409124697.1562,-103.515625,-108.3984375,-86.42578125,-75.1953125,-101.07421875
1656409124701.0625,-103.515625,-102.5390625,-97.65625,-65.91796875,228.515625
1656409124704.9688,-94.23828125,-94.23828125,-62.98828125,-70.80078125,104.00390625
1656409124708.875,-96.6796875,-96.19140625,-60.05859375,-77.1484375,-144.04296875
1656409124712.7812,-99.12109375,-97.16796875,-78.61328125,-84.47265625,-66.89453125
1656409124716.6875,-73.2421875,-90.8203125,-70.3125,-63.4765625,-70.80078125
1656409124720.5938,-57.12890625,-87.890625,-62.5,-37.109375,-96.19140625
1656409124724.5,-71.2890625,-84.47265625,-69.3359375,-50.29296875,-149.90234375
1656409124728.4062,-83.984375,-80.078125,-82.03125,-66.40625,78.61328125
1656409124732.3125,-78.61328125,-75.1953125,-69.82421875,-69.3359375,205.078125
1656409124736.2188,-78.61328125,-71.2890625,-56.15234375,-68.359375,-28.80859375
1656409124740.125,-63.96484375,-69.82421875,-61.5234375,-60.546875,-105.46875
1656409124744.0312,-57.6171875,-69.82421875,-78.61328125,-43.45703125,159.66796875
1656409124747.9375,-69.3359375,-68.84765625,-62.5,-46.875,235.83984375
1656409124751.8438,-52.734375,-64.94140625,-56.15234375,-50.29296875,-41.50390625
1656409124755.75,-23.92578125,-61.03515625,-70.80078125,-40.0390625,-60.546875
1656409124759.6562,-31.25,-61.5234375,-60.546875,-41.9921875,-16.11328125
1656409124763.5625,-46.875,-60.05859375,-47.8515625,-46.38671875,-87.890625
1656409124767.4688,-54.19921875,-60.546875,-49.31640625,-48.33984375,-141.6015625
1656409124771.375,-54.6875,-55.6640625,-62.01171875,-44.921875,-83.984375
1656409124775.2812,-59.08203125,-48.33984375,-66.89453125,-47.8515625,88.8671875
1656409124779.1875,-63.96484375,-49.31640625,-55.6640625,-49.8046875,125.9765625
1656409124783.0938,-55.17578125,-48.33984375,-49.8046875,-37.59765625,-28.80859375
1656409124787,-46.875,-53.22265625,-66.89453125,-35.15625,-3.90625
1656409124790.9062,-38.57421875,-55.6640625,-77.63671875,-48.33984375,234.375
1656409124794.8125,-47.8515625,-57.12890625,-53.22265625,-50.78125,26.85546875
1656409124798.7188,-45.8984375,-59.5703125,-54.19921875,-38.57421875,-139.6484375
1656409124802.625,-20.5078125,-48.33984375,-59.5703125,-27.34375,-3.90625
1656409124806.5312,-7.32421875,-42.48046875,-47.8515625,-38.57421875,9.27734375
1656409124810.4375,-26.3671875,-39.55078125,-46.875,-47.36328125,-135.25390625
1656409124814.3438,-39.55078125,-36.62109375,-54.19921875,-39.55078125,-158.69140625
1656409124818.25,-35.64453125,-40.52734375,-62.01171875,-34.66796875,-72.265625
1656409124822.1562,-18.06640625,-45.41015625,-62.5,-36.62109375,72.265625
1656409124826.0625,0.9765625,-37.59765625,-53.22265625,-42.48046875,54.19921875
1656409124829.9688,4.39453125,-35.15625,-48.33984375,-47.36328125,-147.4609375
1656409124833.875,-6.8359375,-41.015625,-67.87109375,-40.0390625,29.296875
1656409124837.7812,-8.7890625,-40.52734375,-52.24609375,-33.69140625,206.0546875
1656409124841.6875,-10.7421875,-35.64453125,-29.78515625,-22.4609375,-64.453125
1656409124845.5938,-17.578125,-33.69140625,-49.8046875,-21.484375,-119.62890625
1656409124849.5,-15.13671875,-35.15625,-56.640625,-41.015625,-48.33984375
1656409124853.4062,-8.7890625,-29.78515625,-46.875,-41.50390625,-114.2578125
1656409124857.3125,-14.6484375,-27.34375,-44.921875,-43.9453125,-148.4375
1656409124861.2188,-16.11328125,-29.78515625,-47.8515625,-31.73828125,2.9296875
1656409124865.125,-16.6015625,-24.4140625,-48.33984375,-13.671875,106.4453125
1656409124869.0312,-28.3203125,-27.83203125,-41.9921875,-28.3203125,2.44140625
1656409124872.9375,-23.92578125,-23.92578125,-40.52734375,-40.0390625,12.20703125
1656409124876.8438,-15.13671875,-12.6953125,-41.9921875,-29.78515625,44.43359375
1656409124880.75,-5.37109375,-13.18359375,-41.9921875,-9.765625,238.76953125
1656409124884.6562,11.23046875,-5.859375,-13.18359375,-5.859375,110.83984375
1656409124888.5625,-9.27734375,-3.41796875,-14.16015625,-15.625,-155.76171875
1656409124892.4688,-16.6015625,-2.9296875,-24.90234375,-19.53125,-107.91015625
1656409124896.375,-10.7421875,-2.44140625,-11.71875,-4.8828125,-81.54296875
1656409124900.2812,-7.8125,-1.46484375,-0.9765625,9.765625,-125.9765625
1656409124904.1875,4.39453125,2.9296875,-4.8828125,12.20703125,-107.421875
1656409124908.0938,4.39453125,-3.41796875,-12.20703125,13.671875,-15.625
1656409124912,-7.8125,-8.7890625,-13.18359375,6.8359375,5.859375
1656409124915.9062,-28.80859375,-15.13671875,-19.53125,3.41796875,-33.203125
1656409124919.8125,-39.55078125,-22.4609375,-19.53125,7.32421875,3.90625
1656409124923.7188,-20.5078125,-19.53125,-31.73828125,7.8125,180.6640625
1656409124927.625,-25.390625,-13.18359375,-26.3671875,-0.48828125,104.98046875
1656409124931.5312,-26.85546875,-11.71875,-17.578125,-5.37109375,-45.8984375
1656409124935.4375,-29.296875,-12.20703125,-26.85546875,-0.9765625,-92.28515625
1656409124939.3438,-32.2265625,-16.6015625,-51.26953125,1.953125,102.05078125
1656409124943.25,-14.6484375,-23.4375,-31.25,4.8828125,231.93359375
1656409124947.1562,7.8125,-21.97265625,-15.13671875,12.6953125,-88.8671875
1656409124951.0625,-8.7890625,-20.99609375,-31.73828125,11.23046875,-138.18359375
1656409124954.9688,-9.27734375,-17.08984375,-25.87890625,-8.30078125,-21.97265625
1656409124958.875,12.6953125,-9.765625,-15.13671875,-3.90625,-84.9609375
1656409124962.7812,15.625,-8.7890625,-17.578125,28.80859375,-81.54296875
1656409124966.6875,12.20703125,-6.34765625,-29.78515625,46.38671875,1.953125
1656409124970.5938,-5.859375,-1.46484375,-40.52734375,24.4140625,206.0546875
1656409124974.5,-18.06640625,7.32421875,-20.5078125,0,81.54296875
1656409124978.4062,-11.23046875,7.8125,-21.97265625,13.18359375,-66.40625
1656409124982.3125,-2.9296875,0.48828125,-21.97265625,31.25,11.23046875
1656409124986.2188,-6.34765625,-3.90625,-15.625,29.78515625,55.6640625
1656409124990.125,-17.08984375,-0.9765625,-24.90234375,3.41796875,-54.19921875
1656409124994.0312,-20.99609375,1.46484375,-24.4140625,-2.44140625,-151.85546875
1656409124997.9375,-18.5546875,-1.46484375,-15.625,10.25390625,-97.16796875
1656409125001.8438,-8.30078125,-1.46484375,-8.30078125,19.53125,-48.828125
1656409125005.75,5.37109375,-2.9296875,-12.6953125,20.5078125,-77.63671875
1656409125009.6562,0,-5.859375,-24.90234375,7.8125,-33.203125
1656409125013.5625,-8.7890625,-8.7890625,-34.1796875,8.30078125,175.29296875
1656409125017.4688,-7.32421875,-8.30078125,-16.6015625,14.6484375,232.91015625
1656409125021.375,13.18359375,-9.27734375,0.48828125,23.92578125,-58.59375
1656409125025.2812,-0.9765625,-12.20703125,-19.53125,25.390625,-91.30859375
1656409125029.1875,-13.671875,-8.30078125,-34.66796875,14.6484375,-0.48828125
1656409125033.0938,-5.37109375,-7.8125,-27.34375,14.6484375,-29.296875
1656409125037,-3.90625,-14.16015625,-22.94921875,6.8359375,-23.92578125
1656409125040.9062,20.99609375,-9.765625,-24.4140625,20.01953125,-11.23046875
1656409125044.8125,24.90234375,-6.34765625,-34.1796875,27.34375,99.609375
1656409125048.7188,4.39453125,-4.39453125,-25.87890625,9.765625,27.83203125
1656409125052.625,0,-4.39453125,-31.25,-0.48828125,-101.5625
1656409125056.5312,0,-14.16015625,-39.0625,-0.48828125,3.90625
1656409125060.4375,2.9296875,-15.625,-42.96875,10.7421875,295.8984375
1656409125064.3438,12.20703125,-10.25390625,-16.11328125,11.71875,111.81640625
1656409125068.25,15.13671875,-14.6484375,-16.11328125,8.7890625,-125.48828125
1656409125072.1562,2.44140625,-17.08984375,-35.64453125,10.25390625,-67.3828125
1656409125076.0625,3.41796875,-11.23046875,-23.92578125,0.9765625,-48.828125
1656409125079.9688,5.37109375,-14.6484375,-20.5078125,2.9296875,-76.66015625
1656409125083.875,4.39453125,-20.5078125,-31.73828125,7.8125,-100.09765625
1656409125087.7812,16.11328125,-20.01953125,-43.9453125,7.8125,-72.265625
1656409125091.6875,20.01953125,-19.04296875,-44.921875,2.44140625,-40.0390625
1656409125095.5938,13.18359375,-23.4375,-42.96875,3.41796875,-1.46484375
1656409125099.5,6.34765625,-22.94921875,-37.109375,-1.46484375,-70.80078125
1656409125103.4062,-2.9296875,-20.01953125,-50.78125,-1.46484375,31.73828125
1656409125107.3125,-19.53125,-15.13671875,-47.36328125,4.39453125,174.31640625
1656409125111.2188,-21.97265625,-9.765625,-38.0859375,-1.46484375,23.4375
1656409125115.125,-22.94921875,-15.625,-42.96875,-5.37109375,-116.2109375
1656409125119.0312,-11.71875,-16.11328125,-57.6171875,9.765625,95.21484375
1656409125122.9375,-7.32421875,-6.8359375,-47.36328125,25.87890625,388.671875
1656409125126.8438,-16.11328125,-10.25390625,-25.87890625,17.578125,41.9921875
1656409125130.75,-7.8125,-13.18359375,-43.45703125,4.39453125,-135.7421875
1656409125134.6562,-14.6484375,-10.25390625,-50.29296875,-3.41796875,-41.9921875
1656409125138.5625,-14.6484375,-10.25390625,-44.921875,-7.8125,-64.453125
1656409125142.4688,3.90625,-16.11328125,-53.22265625,0,-48.828125
1656409125146.375,4.39453125,-17.578125,-65.91796875,5.859375,-83.984375
1656409125150.2812,-0.9765625,-14.16015625,-60.05859375,-7.32421875,44.921875
1656409125154.1875,-4.39453125,-19.04296875,-53.7109375,-19.04296875,100.09765625
1656409125158.0938,-5.37109375,-17.578125,-58.10546875,-15.13671875,1.46484375
1656409125162,-2.44140625,-11.23046875,-51.7578125,-8.30078125,-22.4609375
1656409125165.9062,-8.7890625,-10.25390625,-43.45703125,-7.32421875,31.73828125
1656409125169.8125,-13.671875,-6.8359375,-46.38671875,-4.8828125,-17.578125
1656409125173.7188,-5.859375,3.41796875,-44.921875,2.44140625,-124.0234375
1656409125177.625,-14.16015625,0,-56.15234375,-7.32421875,-26.3671875
1656409125181.5312,-19.53125,-7.8125,-63.96484375,-4.8828125,314.453125
1656409125185.4375,-13.671875,-6.34765625,-40.0390625,8.30078125,130.37109375
1656409125189.3438,-31.25,-15.13671875,-54.19921875,-8.30078125,-109.375
1656409125193.25,-38.0859375,-20.99609375,-71.77734375,-19.04296875,4.8828125
1656409125197.1562,-25.390625,-23.4375,-61.03515625,-11.23046875,87.890625
1656409125201.0625,-9.765625,-25.87890625,-53.22265625,-9.27734375,59.5703125
1656409125204.9688,-12.20703125,-21.97265625,-56.640625,-11.71875,-98.6328125
1656409125208.875,-30.76171875,-27.83203125,-84.9609375,-21.484375,74.70703125
1656409125212.7812,-28.3203125,-31.25,-67.87109375,-25.87890625,355.46875
1656409125216.6875,-26.85546875,-25.87890625,-33.69140625,-20.99609375,-29.296875
1656409125220.5938,-28.3203125,-24.4140625,-52.24609375,-14.16015625,-148.92578125
1656409125224.5,-32.71484375,-26.3671875,-57.6171875,-14.6484375,9.765625
1656409125228.4062,-56.15234375,-29.296875,-48.33984375,-30.2734375,-85.44921875
1656409125232.3125,-63.4765625,-21.97265625,-53.22265625,-42.48046875,-162.109375
1656409125236.2188,-43.9453125,-16.6015625,-57.6171875,-23.92578125,-120.60546875
1656409125240.125,-14.6484375,-15.13671875,-46.38671875,-2.9296875,-7.32421875
1656409125244.0312,-13.18359375,-13.671875,-49.8046875,-10.25390625,74.70703125
1656409125247.9375,-19.53125,-22.4609375,-54.6875,-9.27734375,-5.859375
1656409125251.8438,-8.7890625,-29.78515625,-50.78125,-1.46484375,-32.71484375
1656409125255.75,-5.859375,-34.1796875,-59.5703125,0,222.16796875
1656409125259.6562,-2.44140625,-33.69140625,-43.9453125,1.953125,103.515625
1656409125263.5625,-6.8359375,-30.76171875,-45.8984375,14.6484375,-101.07421875
1656409125267.4688,-20.99609375,-31.73828125,-66.40625,5.859375,-67.3828125
1656409125271.375,-18.06640625,-28.80859375,-60.546875,-15.625,-0.48828125
1656409125275.2812,-18.06640625,-30.2734375,-50.29296875,-13.671875,-90.33203125
1656409125279.1875,-11.71875,-28.3203125,-53.7109375,-9.27734375,-140.13671875
1656409125283.0938,-14.16015625,-21.97265625,-63.4765625,-7.32421875,-14.16015625
1656409125287,-20.99609375,-27.83203125,-61.03515625,-15.13671875,6.8359375
1656409125290.9062,-24.90234375,-37.59765625,-68.84765625,-25.87890625,-29.296875
1656409125294.8125,-14.16015625,-29.78515625,-67.3828125,-21.97265625,-9.27734375
1656409125298.7188,2.44140625,-28.80859375,-70.80078125,-13.671875,116.69921875
1656409125302.625,4.8828125,-37.109375,-71.2890625,-7.32421875,353.02734375
1656409125306.5312,-14.16015625,-39.0625,-47.36328125,-13.671875,57.12890625
1656409125310.4375,-37.109375,-37.59765625,-59.08203125,-20.5078125,-150.390625
1656409125314.3438,-26.3671875,-14.16015625,-69.3359375,-18.5546875,-27.83203125
1656409125318.25,-6.8359375,4.8828125,-59.08203125,-19.04296875,-87.890625
1656409125322.1562,-8.7890625,2.44140625,-51.26953125,-15.625,-148.4375
1656409125326.0625,-5.37109375,-0.9765625,-64.94140625,-11.71875,-63.4765625
1656409125329.9688,-7.8125,1.953125,-67.3828125,-27.83203125,53.7109375
1656409125333.875,-4.8828125,2.9296875,-52.24609375,-42.96875,-61.5234375
1656409125337.7812,-1.46484375,-0.9765625,-51.7578125,-20.99609375,-96.19140625
1656409125341.6875,-15.625,-3.90625,-56.15234375,-2.44140625,46.38671875
1656409125345.5938,-16.6015625,-1.46484375,-66.89453125,-2.44140625,242.67578125
1656409125349.5,-18.5546875,0.48828125,-41.9921875,-8.30078125,146.97265625
1656409125353.4062,-3.41796875,0.48828125,-42.96875,-19.04296875,-50.29296875
1656409125357.3125,-0.48828125,2.44140625,-57.6171875,-23.92578125,-67.87109375
1656409125361.2188,-5.859375,0,-48.828125,-16.6015625,-14.6484375
1656409125365.125,-16.6015625,-3.41796875,-58.10546875,-17.08984375,-96.6796875
1656409125369.0312,-37.109375,-5.37109375,-62.98828125,-14.16015625,-126.953125
1656409125372.9375,-41.9921875,-3.41796875,-65.4296875,-25.87890625,-24.90234375
1656409125376.8438,-34.1796875,-1.953125,-57.6171875,-36.62109375,-45.41015625
1656409125380.75,-39.55078125,-0.9765625,-53.7109375,-34.1796875,-95.703125
1656409125384.6562,-37.59765625,-1.953125,-63.96484375,-31.25,-81.54296875
1656409125388.5625,-34.1796875,-0.48828125,-72.265625,-21.97265625,122.55859375
1656409125392.4688,-41.015625,-0.48828125,-62.01171875,-30.76171875,394.53125
1656409125396.375,-45.41015625,-3.90625,-38.0859375,-36.62109375,74.70703125
1656409125400.2812,-43.9453125,-3.41796875,-51.7578125,-21.484375,-151.3671875
1656409125404.1875,-30.76171875,-4.8828125,-63.96484375,-16.6015625,-29.296875
1656409125408.0938,-37.59765625,-4.39453125,-43.45703125,-10.7421875,-49.31640625
1656409125412,-41.9921875,2.44140625,-39.0625,-9.27734375,-123.53515625
1656409125415.9062,-37.109375,10.25390625,-40.52734375,-13.18359375,-95.21484375
1656409125419.8125,-41.50390625,11.71875,-42.48046875,-7.32421875,-7.32421875
1656409125423.7188,-48.33984375,11.71875,-41.50390625,-5.37109375,-27.83203125
1656409125427.625,-46.38671875,11.23046875,-37.109375,-13.18359375,-115.72265625
1656409125431.5312,-37.59765625,7.32421875,-58.10546875,-14.6484375,22.94921875
1656409125435.4375,-35.64453125,8.7890625,-56.640625,-5.859375,378.90625
1656409125439.3438,-20.5078125,18.06640625,-26.85546875,2.9296875,161.1328125
1656409125443.25,-11.71875,20.5078125,-38.0859375,-0.48828125,-132.8125
1656409125447.1562,-16.11328125,11.23046875,-51.26953125,-12.20703125,34.66796875
1656409125451.0625,-26.85546875,4.39453125,-40.52734375,-17.08984375,166.9921875
1656409125454.9688,-25.87890625,4.8828125,-35.64453125,-20.01953125,-87.890625
1656409125458.875,-19.53125,4.8828125,-45.41015625,-13.671875,-193.84765625
1656409125462.7812,-18.5546875,3.41796875,-52.734375,-6.8359375,-99.609375
1656409125466.6875,-32.2265625,12.20703125,-48.828125,-7.32421875,-83.49609375
1656409125470.5938,-42.96875,25.390625,-45.41015625,-20.01953125,-120.60546875
1656409125474.5,-39.0625,24.90234375,-48.33984375,-25.87890625,-111.328125
1656409125478.4062,-24.90234375,22.4609375,-57.6171875,-10.25390625,98.6328125
1656409125482.3125,-17.578125,19.04296875,-49.8046875,-13.671875,153.3203125
1656409125486.2188,-17.578125,22.4609375,-35.15625,-23.92578125,-58.10546875
1656409125490.125,-33.69140625,24.90234375,-37.59765625,-23.4375,-134.765625
1656409125494.0312,-53.22265625,18.06640625,-55.6640625,-32.2265625,38.57421875
1656409125497.9375,-47.8515625,13.18359375,-40.52734375,-32.71484375,96.6796875
1656409125501.8438,-34.66796875,8.7890625,-37.109375,-22.94921875,-96.6796875
1656409125505.75,-31.25,7.8125,-47.8515625,-21.484375,-52.734375
1656409125509.6562,-33.69140625,7.32421875,-45.8984375,-31.25,105.95703125
1656409125513.5625,-35.15625,7.8125,-35.64453125,-35.64453125,-48.33984375
1656409125517.4688,-35.64453125,9.27734375,-36.62109375,-24.90234375,-174.8046875
1656409125521.375,-38.57421875,9.27734375,-49.8046875,-20.01953125,-49.8046875
1656409125525.2812,-29.78515625,11.71875,-49.8046875,-22.4609375,143.5546875
1656409125529.1875,-33.69140625,8.30078125,-40.52734375,-27.34375,76.66015625
1656409125533.0938,-22.4609375,9.27734375,-29.78515625,-27.34375,-104.00390625
1656409125537,-18.5546875,10.7421875,-38.0859375,-16.6015625,-82.51953125
1656409125540.9062,-39.0625,8.7890625,-53.7109375,-10.7421875,248.53515625
1656409125544.8125,-41.50390625,11.23046875,-31.25,-23.4375,166.015625
1656409125548.7188,-46.38671875,12.6953125,-38.57421875,-36.1328125,-118.65234375
1656409125552.625,-59.08203125,9.765625,-51.7578125,-37.109375,-78.125
1656409125556.5312,-49.31640625,0.48828125,-32.71484375,-31.25,-1.953125
1656409125560.4375,-37.109375,0,-32.2265625,-26.85546875,-53.7109375
1656409125564.3438,-42.96875,-2.9296875,-49.31640625,-27.34375,-29.78515625
1656409125568.25,-45.41015625,-7.32421875,-57.6171875,-33.69140625,59.5703125
1656409125572.1562,-40.0390625,-0.9765625,-54.6875,-41.9921875,135.25390625
1656409125576.0625,-26.3671875,-0.48828125,-45.8984375,-41.9921875,62.5
1656409125579.9688,-16.6015625,-5.859375,-37.109375,-28.3203125,-51.7578125
1656409125583.875,-21.484375,-4.39453125,-53.22265625,-27.34375,114.74609375
1656409125587.7812,-33.69140625,-1.953125,-43.45703125,-29.296875,246.09375
1656409125591.6875,-41.9921875,-2.9296875,-34.66796875,-33.69140625,-75.1953125
1656409125595.5938,-45.41015625,-5.37109375,-47.8515625,-40.52734375,-173.828125
1656409125599.5,-45.8984375,-1.953125,-39.0625,-35.64453125,-74.21875
1656409125603.4062,-37.109375,0.9765625,-34.66796875,-25.87890625,-137.20703125
1656409125607.3125,-40.0390625,0,-40.52734375,-27.34375,-165.52734375
1656409125611.2188,-43.45703125,-5.37109375,-46.38671875,-34.66796875,-138.671875
1656409125615.125,-50.29296875,-12.20703125,-44.43359375,-34.66796875,-69.82421875
1656409125619.0312,-52.734375,-14.16015625,-42.96875,-30.2734375,35.15625
1656409125622.9375,-45.8984375,-11.23046875,-41.9921875,-30.2734375,41.015625
1656409125626.8438,-51.26953125,-12.6953125,-51.26953125,-38.57421875,59.08203125
1656409125630.75,-66.89453125,-20.99609375,-65.4296875,-49.8046875,317.3828125
1656409125634.6562,-68.84765625,-23.4375,-30.2734375,-52.734375,214.84375
1656409125638.5625,-57.6171875,-20.01953125,-21.484375,-43.45703125,-103.515625
1656409125642.4688,-62.98828125,-23.4375,-45.41015625,-44.43359375,-122.55859375
1656409125646.375,-73.73046875,-31.73828125,-50.29296875,-57.6171875,-116.69921875
1656409125650.2812,-63.96484375,-31.73828125,-45.41015625,-72.75390625,-157.2265625
1656409125654.1875,-63.96484375,-28.80859375,-50.78125,-64.94140625,-172.8515625
1656409125658.0938,-66.40625,-28.80859375,-49.31640625,-43.9453125,-104.98046875
1656409125662,-76.66015625,-29.78515625,-40.0390625,-44.921875,-35.15625
1656409125665.9062,-97.65625,-35.15625,-56.640625,-53.7109375,46.875
1656409125669.8125,-96.19140625,-36.1328125,-57.6171875,-65.4296875,31.73828125
1656409125673.7188,-94.23828125,-25.87890625,-63.4765625,-62.5,96.19140625
1656409125677.625,-80.078125,-20.01953125,-53.7109375,-44.921875,175.78125
1656409125681.5312,-55.6640625,-21.97265625,-28.3203125,-34.1796875,47.36328125
1656409125685.4375,-60.05859375,-19.53125,-42.48046875,-38.0859375,-56.640625
1656409125689.3438,-74.21875,-19.04296875,-62.98828125,-51.7578125,22.4609375
1656409125693.25,-81.54296875,-23.4375,-46.38671875,-56.15234375,2.9296875
1656409125697.1562,-64.94140625,-21.97265625,-38.57421875,-52.24609375,-126.953125
1656409125701.0625,-45.41015625,-21.97265625,-47.36328125,-45.8984375,-62.01171875
1656409125704.9688,-51.26953125,-25.87890625,-53.7109375,-49.8046875,10.25390625
1656409125708.875,-47.36328125,-20.5078125,-53.7109375,-50.29296875,-73.73046875
1656409125712.7812,-40.52734375,-16.11328125,-56.15234375,-39.0625,-80.078125
1656409125716.6875,-35.64453125,-17.578125,-55.17578125,-27.34375,41.50390625
1656409125720.5938,-46.875,-22.4609375,-51.26953125,-26.85546875,139.16015625
1656409125724.5,-51.26953125,-27.34375,-47.8515625,-46.38671875,-3.90625
1656409125728.4062,-50.78125,-22.94921875,-54.6875,-61.03515625,-138.18359375
1656409125732.3125,-61.03515625,-22.4609375,-61.03515625,-54.6875,-41.9921875
1656409125736.2188,-53.7109375,-23.92578125,-55.17578125,-50.78125,149.4140625
1656409125740.125,-38.0859375,-18.06640625,-38.0859375,-44.921875,89.84375
1656409125744.0312,-35.64453125,-13.18359375,-40.52734375,-36.62109375,-62.98828125
1656409125747.9375,-41.9921875,-7.8125,-51.26953125,-39.0625,-46.875
1656409125751.8438,-35.15625,-5.859375,-38.0859375,-55.17578125,-29.78515625
1656409125755.75,-42.96875,-5.859375,-39.0625,-59.5703125,-104.98046875
1656409125759.6562,-46.38671875,-7.32421875,-43.45703125,-42.48046875,-26.3671875
1656409125763.5625,-61.03515625,-8.7890625,-46.875,-30.76171875,211.42578125
1656409125767.4688,-72.75390625,-6.8359375,-36.62109375,-31.73828125,291.50390625
1656409125771.375,-60.546875,-1.46484375,-30.2734375,-40.0390625,-17.578125
1656409125775.2812,-53.7109375,-6.8359375,-49.31640625,-42.48046875,-76.66015625
1656409125779.1875,-49.31640625,-0.48828125,-35.64453125,-26.85546875,-11.71875
1656409125783.0938,-32.71484375,14.16015625,-18.5546875,-14.6484375,-65.4296875
1656409125787,-24.4140625,9.765625,-26.85546875,-18.5546875,-106.4453125
1656409125790.9062,-37.59765625,4.39453125,-34.66796875,-25.390625,-126.46484375
1656409125794.8125,-38.0859375,4.39453125,-38.57421875,-33.203125,-30.76171875
1656409125798.7188,-35.64453125,7.32421875,-28.3203125,-29.296875,15.625
1656409125802.625,-39.55078125,6.8359375,-22.94921875,-31.73828125,-72.265625
1656409125806.5312,-33.69140625,1.46484375,-42.96875,-30.76171875,2.9296875
1656409125810.4375,-34.1796875,-8.30078125,-44.43359375,-32.2265625,196.77734375
1656409125814.3438,-59.5703125,-12.20703125,-30.2734375,-42.96875,31.73828125
1656409125818.25,-67.87109375,-10.25390625,-32.2265625,-36.1328125,-138.671875
1656409125822.1562,-55.6640625,-13.671875,-45.8984375,-28.80859375,-63.4765625
1656409125826.0625,-56.15234375,-11.71875,-58.10546875,-31.73828125,264.16015625
1656409125829.9688,-74.70703125,-6.8359375,-27.83203125,-39.0625,176.26953125
1656409125833.875,-83.984375,-2.9296875,-23.92578125,-40.0390625,-122.0703125
1656409125837.7812,-84.47265625,-1.953125,-36.62109375,-39.55078125,-58.59375
1656409125841.6875,-82.03125,-6.8359375,-30.76171875,-41.9921875,-6.8359375
1656409125845.5938,-79.1015625,-5.859375,-28.80859375,-41.9921875,-83.49609375
1656409125849.5,-75.68359375,-5.37109375,-33.69140625,-52.734375,-106.4453125
1656409125853.4062,-83.0078125,-10.25390625,-45.8984375,-48.33984375,62.98828125
1656409125857.3125,-82.03125,-11.71875,-36.62109375,-37.109375,148.92578125
1656409125861.2188,-65.4296875,-9.27734375,-25.87890625,-35.64453125,-4.8828125
1656409125865.125,-73.73046875,-6.34765625,-26.85546875,-41.9921875,-98.6328125
1656409125869.0312,-75.1953125,-10.25390625,-43.45703125,-53.22265625,-2.9296875
1656409125872.9375,-68.359375,-7.32421875,-40.0390625,-61.03515625,2.9296875
1656409125876.8438,-58.10546875,-4.39453125,-33.69140625,-59.5703125,-137.6953125
1656409125880.75,-44.43359375,-7.8125,-46.875,-58.10546875,-116.69921875
1656409125884.6562,-57.12890625,-11.23046875,-62.98828125,-62.01171875,26.85546875
1656409125888.5625,-70.3125,-20.5078125,-57.12890625,-76.66015625,-51.7578125
1656409125892.4688,-63.4765625,-23.4375,-54.19921875,-73.73046875,-129.8828125
1656409125896.375,-56.640625,-15.625,-50.29296875,-54.19921875,-76.171875
1656409125900.2812,-61.03515625,-15.625,-67.87109375,-45.8984375,345.21484375
1656409125904.1875,-58.59375,-11.23046875,-55.6640625,-58.10546875,512.20703125
1656409125908.0938,-69.82421875,-9.765625,-38.0859375,-75.68359375,14.16015625
1656409125912,-70.80078125,-14.16015625,-56.640625,-86.9140625,-115.72265625
1656409125915.9062,-55.17578125,-12.20703125,-46.875,-77.63671875,32.71484375
1656409125919.8125,-53.22265625,-6.8359375,-35.64453125,-62.5,-56.640625
1656409125923.7188,-49.31640625,-9.27734375,-48.828125,-64.453125,-126.953125
1656409125927.625,-49.31640625,-15.625,-62.98828125,-60.546875,-90.8203125
1656409125931.5312,-62.5,-18.06640625,-57.6171875,-55.6640625,-0.48828125
1656409125935.4375,-63.96484375,-27.34375,-54.19921875,-65.4296875,-66.40625
1656409125939.3438,-61.03515625,-36.1328125,-58.59375,-71.2890625,-96.6796875
1656409125943.25,-45.41015625,-37.109375,-62.01171875,-56.15234375,-54.19921875
1656409125947.1562,-31.25,-36.62109375,-66.40625,-56.15234375,-36.1328125
1656409125951.0625,-33.69140625,-36.1328125,-56.640625,-68.359375,17.578125
1656409125954.9688,-31.73828125,-36.62109375,-52.24609375,-69.82421875,-62.01171875
1656409125958.875,-32.71484375,-42.96875,-77.1484375,-63.4765625,86.42578125
1656409125962.7812,-24.90234375,-40.0390625,-66.89453125,-61.03515625,244.62890625
1656409125966.6875,-15.13671875,-38.57421875,-49.31640625,-63.96484375,-69.3359375
1656409125970.5938,-21.484375,-34.1796875,-69.82421875,-52.24609375,-128.90625
1656409125974.5,-22.4609375,-26.85546875,-71.77734375,-47.8515625,95.703125
1656409125978.4062,-37.109375,-31.25,-55.17578125,-60.05859375,-28.80859375
1656409125982.3125,-63.96484375,-36.1328125,-66.40625,-63.4765625,-158.69140625
1656409125986.2188,-61.5234375,-37.109375,-74.70703125,-67.3828125,-61.5234375
1656409125990.125,-60.546875,-34.66796875,-73.2421875,-79.58984375,11.71875
1656409125994.0312,-81.54296875,-32.71484375,-78.125,-80.078125,48.828125
1656409125997.9375,-86.42578125,-28.3203125,-65.4296875,-63.4765625,-8.30078125
1656409126001.8438,-85.44921875,-32.2265625,-65.91796875,-56.15234375,-40.52734375
1656409126005.75,-101.07421875,-38.57421875,-90.8203125,-60.05859375,222.65625
1656409126009.6562,-86.9140625,-36.62109375,-78.125,-73.2421875,100.09765625
1656409126013.5625,-70.80078125,-30.2734375,-72.75390625,-72.75390625,-136.23046875
1656409126017.4688,-76.66015625,-26.85546875,-90.8203125,-57.6171875,-83.0078125
1656409126021.375,-79.1015625,-28.3203125,-93.26171875,-56.640625,-71.2890625
1656409126025.2812,-74.21875,-34.1796875,-94.7265625,-71.2890625,-104.00390625
1656409126029.1875,-68.84765625,-33.203125,-100.5859375,-79.1015625,-127.44140625
1656409126033.0938,-61.03515625,-23.4375,-99.12109375,-74.70703125,-36.1328125
1656409126037,-55.17578125,-18.5546875,-88.37890625,-75.1953125,-14.16015625
1656409126040.9062,-54.6875,-16.11328125,-98.14453125,-73.73046875,-27.83203125
1656409126044.8125,-44.921875,-20.01953125,-102.05078125,-61.03515625,-26.85546875
1656409126048.7188,-43.9453125,-20.5078125,-113.76953125,-63.96484375,29.78515625
1656409126052.625,-44.43359375,-12.6953125,-93.75,-52.24609375,190.91796875
1656409126056.5312,-44.43359375,-14.6484375,-66.40625,-33.203125,-1.953125
1656409126060.4375,-67.3828125,-23.4375,-84.9609375,-41.50390625,-117.1875
1656409126064.3438,-78.61328125,-25.390625,-98.6328125,-53.7109375,-43.9453125
1656409126068.25,-81.0546875,-36.62109375,-110.83984375,-53.22265625,-57.6171875
1656409126072.1562,-74.21875,-41.50390625,-111.81640625,-52.734375,-164.0625
1656409126076.0625,-72.75390625,-34.66796875,-103.02734375,-48.33984375,-93.26171875
1656409126079.9688,-60.05859375,-33.69140625,-92.7734375,-40.0390625,24.4140625
1656409126083.875,-49.31640625,-28.80859375,-81.54296875,-38.0859375,-49.31640625
1656409126087.7812,-55.17578125,-21.484375,-84.9609375,-39.0625,-63.96484375
1656409126091.6875,-66.89453125,-20.01953125,-90.8203125,-35.64453125,27.83203125
1656409126095.5938,-71.2890625,-17.08984375,-98.14453125,-21.97265625,312.98828125
1656409126099.5,-71.2890625,-15.13671875,-70.80078125,-25.87890625,280.76171875
1656409126103.4062,-47.36328125,-19.04296875,-77.63671875,-38.57421875,-74.70703125
1656409126107.3125,-39.55078125,-22.4609375,-99.12109375,-38.57421875,-126.953125
1656409126111.2188,-60.05859375,-22.94921875,-78.125,-40.0390625,-59.5703125
1656409126115.125,-77.63671875,-23.92578125,-61.03515625,-36.1328125,-97.16796875
1656409126119.0312,-66.40625,-20.5078125,-42.96875,-31.73828125,-125.9765625
1656409126122.9375,-53.7109375,-21.484375,-42.48046875,-26.85546875,-13.18359375
1656409126126.8438,-65.91796875,-32.71484375,-49.31640625,-34.1796875,15.13671875
1656409126130.75,-62.98828125,-37.59765625,-49.31640625,-43.45703125,-80.56640625
1656409126134.6562,-59.08203125,-38.57421875,-59.08203125,-38.57421875,-48.33984375
1656409126138.5625,-55.6640625,-41.50390625,-69.82421875,-28.3203125,230.95703125
1656409126142.4688,-53.7109375,-39.55078125,-54.19921875,-27.83203125,319.3359375
1656409126146.375,-51.26953125,-44.921875,-45.8984375,-45.41015625,9.27734375
1656409126150.2812,-62.01171875,-51.26953125,-77.1484375,-50.78125,-20.99609375
1656409126154.1875,-60.05859375,-48.828125,-93.75,-50.29296875,94.23828125
1656409126158.0938,-39.0625,-40.52734375,-77.1484375,-50.78125,32.2265625
1656409126162,-46.38671875,-36.1328125,-83.0078125,-47.36328125,-72.75390625
1656409126165.9062,-39.0625,-35.15625,-102.5390625,-45.8984375,-83.49609375
1656409126169.8125,-33.69140625,-41.9921875,-100.5859375,-53.7109375,-41.50390625
1656409126173.7188,-34.66796875,-46.875,-95.703125,-60.05859375,-72.265625
1656409126177.625,-24.90234375,-45.41015625,-99.12109375,-59.5703125,-156.25
1656409126181.5312,-11.71875,-42.48046875,-109.86328125,-42.48046875,-49.8046875
1656409126185.4375,-18.5546875,-40.0390625,-113.28125,-36.62109375,286.1328125
1656409126189.3438,-34.1796875,-37.59765625,-79.58984375,-43.9453125,112.79296875
1656409126193.25,-47.8515625,-36.1328125,-75.1953125,-46.875,-147.94921875
1656409126197.1562,-48.828125,-39.0625,-83.0078125,-51.26953125,-37.109375
1656409126201.0625,-34.1796875,-37.109375,-68.84765625,-35.64453125,-20.5078125
1656409126204.9688,-40.0390625,-32.2265625,-68.359375,-30.2734375,-84.9609375
1656409126208.875,-56.640625,-36.62109375,-76.66015625,-36.62109375,-56.640625
1656409126212.7812,-67.87109375,-46.875,-83.0078125,-40.0390625,-5.859375
1656409126216.6875,-68.84765625,-44.921875,-74.70703125,-31.73828125,30.2734375
1656409126220.5938,-76.171875,-45.8984375,-68.359375,-24.4140625,-92.28515625
1656409126224.5,-83.0078125,-52.734375,-82.03125,-41.50390625,-125.48828125
1656409126228.4062,-74.70703125,-50.29296875,-98.6328125,-53.22265625,31.25
1656409126232.3125,-80.56640625,-50.29296875,-84.9609375,-58.59375,72.75390625
1656409126236.2188,-84.9609375,-50.29296875,-63.96484375,-57.6171875,-65.91796875
1656409126240.125,-66.89453125,-51.7578125,-73.73046875,-59.5703125,-108.88671875
1656409126244.0312,-63.96484375,-56.640625,-91.796875,-56.15234375,18.5546875
1656409126247.9375,-75.1953125,-53.22265625,-80.078125,-58.59375,20.5078125
1656409126251.8438,-80.078125,-55.17578125,-75.68359375,-63.96484375,-143.06640625
1656409126255.75,-81.54296875,-57.12890625,-83.0078125,-59.08203125,-102.05078125
1656409126259.6562,-62.01171875,-58.10546875,-83.0078125,-46.38671875,11.23046875
1656409126263.5625,-55.6640625,-58.59375,-84.9609375,-43.9453125,3.90625
1656409126267.4688,-62.01171875,-56.15234375,-80.56640625,-50.29296875,-12.20703125
1656409126271.375,-58.59375,-52.734375,-85.44921875,-49.8046875,-49.8046875
1656409126275.2812,-70.80078125,-52.24609375,-97.16796875,-50.78125,240.234375
1656409126279.1875,-70.3125,-52.24609375,-77.63671875,-46.38671875,224.12109375
1656409126283.0938,-59.08203125,-51.7578125,-72.265625,-41.50390625,-68.84765625
1656409126287,-57.12890625,-52.734375,-89.35546875,-47.8515625,-47.36328125
1656409126290.9062,-43.9453125,-51.26953125,-90.33203125,-49.8046875,224.12109375
1656409126294.8125,-37.109375,-52.734375,-61.5234375,-61.5234375,62.98828125
1656409126298.7188,-45.41015625,-54.19921875,-46.875,-63.4765625,-136.23046875
1656409126302.625,-33.203125,-50.29296875,-45.41015625,-54.19921875,-65.4296875
1656409126306.5312,-28.3203125,-50.78125,-36.62109375,-47.36328125,-47.36328125
1656409126310.4375,-48.33984375,-53.22265625,-34.1796875,-43.45703125,-98.6328125
1656409126314.3438,-55.17578125,-52.734375,-43.9453125,-45.41015625,-131.8359375
1656409126318.25,-61.03515625,-52.734375,-45.8984375,-38.0859375,-55.6640625
1656409126322.1562,-58.10546875,-50.29296875,-36.62109375,-29.78515625,56.15234375
1656409126326.0625,-46.875,-41.50390625,-35.15625,-30.2734375,62.98828125
1656409126329.9688,-52.24609375,-37.109375,-37.59765625,-41.50390625,25.390625
1656409126333.875,-62.01171875,-35.15625,-40.52734375,-42.48046875,85.44921875
1656409126337.7812,-64.94140625,-37.109375,-36.62109375,-36.1328125,20.01953125
1656409126341.6875,-58.59375,-39.0625,-36.1328125,-48.33984375,-158.203125
1656409126345.5938,-57.6171875,-39.55078125,-44.921875,-41.9921875,-125.48828125
1656409126349.5,-57.12890625,-36.1328125,-59.08203125,-35.64453125,68.359375
1656409126353.4062,-46.875,-32.71484375,-49.31640625,-41.015625,-2.44140625
1656409126357.3125,-38.57421875,-32.2265625,-41.50390625,-33.203125,-113.76953125
1656409126361.2188,-35.64453125,-27.34375,-49.8046875,-19.04296875,-93.26171875
1656409126365.125,-64.94140625,-58.10546875,-97.16796875,-44.921875,177.24609375
1656409126369.0312,-131.8359375,-119.62890625,-143.5546875,-117.1875,462.890625
1656409126372.9375,-149.4140625,-134.27734375,-140.13671875,-148.92578125,179.6875
1656409126376.8438,-141.6015625,-128.90625,-142.578125,-135.7421875,-13.671875
1656409126380.75,-134.765625,-130.37109375,-154.78515625,-121.09375,144.53125
1656409126384.6562,-111.328125,-126.953125,-141.6015625,-111.328125,21.484375
1656409126388.5625,-122.0703125,-120.1171875,-128.41796875,-99.609375,-138.671875
1656409126392.4688,-152.83203125,-115.234375,-130.37109375,-107.91015625,-75.1953125
1656409126396.375,-153.3203125,-106.4453125,-119.140625,-109.375,19.04296875
1656409126400.2812,-146.97265625,-103.515625,-109.375,-102.05078125,-102.5390625
1656409126404.1875,-144.04296875,-104.98046875,-122.0703125,-115.234375,-127.9296875
1656409126408.0938,-138.671875,-103.515625,-128.90625,-125.48828125,-10.25390625
1656409126412,-136.23046875,-100.5859375,-120.60546875,-118.1640625,-41.50390625
1656409126415.9062,-138.18359375,-101.5625,-125.48828125,-112.3046875,15.625
1656409126419.8125,-116.69921875,-90.8203125,-118.1640625,-97.16796875,15.625
1656409126423.7188,-103.515625,-77.1484375,-119.140625,-91.30859375,74.70703125
1656409126427.625,-105.95703125,-79.58984375,-105.95703125,-89.35546875,227.5390625
1656409126431.5312,-94.23828125,-77.63671875,-89.84375,-74.21875,6.34765625
1656409126435.4375,-81.0546875,-70.80078125,-94.7265625,-69.82421875,-139.16015625
1656409126439.3438,-96.19140625,-72.75390625,-99.12109375,-71.2890625,-11.23046875
1656409126443.25,-101.07421875,-71.77734375,-98.14453125,-65.91796875,91.30859375
1656409126447.1562,-86.9140625,-64.94140625,-88.8671875,-70.80078125,-49.31640625
1656409126451.0625,-82.03125,-62.98828125,-94.23828125,-74.70703125,-100.5859375
1656409126454.9688,-73.73046875,-60.05859375,-98.14453125,-66.40625,92.28515625
1656409126458.875,-51.26953125,-51.7578125,-83.0078125,-62.01171875,-8.30078125
1656409126462.7812,-29.78515625,-49.8046875,-82.51953125,-56.640625,-67.3828125
1656409126466.6875,-32.2265625,-55.6640625,-86.9140625,-47.36328125,134.27734375
1656409126470.5938,-53.7109375,-56.640625,-98.14453125,-49.8046875,262.20703125
1656409126474.5,-57.6171875,-54.19921875,-83.0078125,-72.265625,51.7578125
1656409126478.4062,-54.19921875,-58.59375,-76.171875,-71.77734375,-147.94921875
1656409126482.3125,-60.05859375,-57.12890625,-78.125,-46.38671875,-65.91796875
1656409126486.2188,-64.94140625,-52.24609375,-72.265625,-51.26953125,-52.24609375
1656409126490.125,-61.03515625,-57.12890625,-72.75390625,-64.94140625,-139.6484375
1656409126494.0312,-41.015625,-54.6875,-70.80078125,-53.22265625,-157.2265625
1656409126497.9375,-28.3203125,-48.828125,-75.1953125,-37.109375,-37.59765625
1656409126501.8438,-43.45703125,-44.921875,-69.82421875,-40.0390625,49.31640625
1656409126505.75,-48.33984375,-42.96875,-69.3359375,-42.96875,-58.59375
1656409126509.6562,-39.0625,-44.43359375,-73.73046875,-52.24609375,-81.54296875
1656409126513.5625,-41.50390625,-45.8984375,-77.63671875,-51.26953125,139.16015625
1656409126517.4688,-35.64453125,-44.921875,-75.1953125,-41.50390625,416.015625
1656409126521.375,-39.0625,-40.0390625,-52.24609375,-49.31640625,129.39453125
1656409126525.2812,-60.05859375,-42.96875,-64.453125,-57.12890625,-120.1171875
1656409126529.1875,-58.59375,-43.9453125,-82.51953125,-53.22265625,-68.359375
1656409126533.0938,-68.359375,-42.48046875,-69.82421875,-62.98828125,-139.6484375
1656409126537,-82.03125,-48.33984375,-66.89453125,-69.82421875,-192.3828125
1656409126540.9062,-75.68359375,-52.24609375,-71.2890625,-66.40625,-146.97265625
1656409126544.8125,-72.75390625,-48.828125,-60.546875,-60.05859375,-80.56640625
1656409126548.7188,-54.19921875,-43.45703125,-58.10546875,-55.6640625,-101.07421875
1656409126552.625,-47.36328125,-43.9453125,-72.265625,-58.59375,-118.65234375
1656409126556.5312,-71.77734375,-48.33984375,-88.37890625,-57.6171875,43.9453125
1656409126560.4375,-74.21875,-51.26953125,-107.91015625,-57.12890625,317.87109375
1656409126564.3438,-66.40625,-44.43359375,-86.9140625,-67.87109375,208.984375
1656409126568.25,-68.359375,-39.0625,-88.8671875,-74.70703125,-91.796875
1656409126572.1562,-66.89453125,-40.0390625,-118.65234375,-65.91796875,-95.21484375
1656409126576.0625,-65.4296875,-44.921875,-118.1640625,-53.22265625,76.66015625
1656409126579.9688,-82.03125,-44.43359375,-108.3984375,-50.29296875,-38.57421875
1656409126583.875,-83.984375,-44.43359375,-113.76953125,-61.03515625,-128.41796875
1656409126587.7812,-72.75390625,-42.48046875,-109.86328125,-58.59375,-90.33203125
1656409126591.6875,-65.91796875,-37.109375,-101.5625,-58.10546875,-109.86328125
1656409126595.5938,-57.12890625,-31.73828125,-98.14453125,-62.98828125,-110.3515625
1656409126599.5,-51.26953125,-29.296875,-102.05078125,-51.7578125,-102.05078125
1656409126603.4062,-65.4296875,-34.1796875,-110.3515625,-49.8046875,58.10546875
1656409126607.3125,-77.1484375,-33.69140625,-92.28515625,-56.15234375,158.203125
1656409126611.2188,-65.4296875,-34.1796875,-81.54296875,-52.734375,-46.38671875
1656409126615.125,-82.03125,-37.109375,-93.26171875,-49.31640625,-148.92578125
1656409126619.0312,-80.078125,-34.1796875,-101.5625,-46.875,144.53125
1656409126622.9375,-62.01171875,-30.2734375,-76.66015625,-40.0390625,246.58203125
1656409126626.8438,-57.12890625,-32.2265625,-70.3125,-38.57421875,-79.58984375
1656409126630.75,-45.8984375,-33.203125,-84.9609375,-48.828125,-118.1640625
1656409126634.6562,-48.33984375,-28.3203125,-77.1484375,-60.05859375,-24.90234375
1656409126638.5625,-59.5703125,-26.3671875,-71.2890625,-42.96875,-85.9375
1656409126642.4688,-52.734375,-29.78515625,-77.63671875,-29.78515625,-136.23046875
1656409126646.375,-44.43359375,-37.59765625,-91.796875,-43.9453125,-66.40625
1656409126650.2812,-41.015625,-32.2265625,-90.8203125,-48.33984375,78.125
1656409126654.1875,-53.22265625,-19.04296875,-74.21875,-51.26953125,53.22265625
1656409126658.0938,-62.5,-18.5546875,-64.94140625,-54.19921875,-74.70703125
1656409126662,-66.89453125,-24.4140625,-79.58984375,-56.640625,-72.265625
1656409126665.9062,-81.54296875,-27.34375,-89.84375,-57.12890625,187.5
1656409126669.8125,-83.49609375,-28.3203125,-64.94140625,-58.10546875,32.71484375
1656409126673.7188,-83.0078125,-27.34375,-62.98828125,-49.31640625,-137.6953125
1656409126677.625,-83.984375,-23.4375,-72.265625,-48.828125,-0.9765625
1656409126681.5312,-72.75390625,-25.87890625,-67.3828125,-54.19921875,26.85546875
1656409126685.4375,-67.3828125,-27.34375,-66.40625,-44.921875,-69.3359375
1656409126689.3438,-68.359375,-25.390625,-69.3359375,-42.96875,-141.11328125
1656409126693.25,-63.4765625,-29.78515625,-71.2890625,-50.78125,-78.61328125
1656409126697.1562,-66.40625,-26.85546875,-68.359375,-42.96875,73.73046875
1656409126701.0625,-58.10546875,-26.85546875,-64.453125,-33.203125,43.9453125
1656409126704.9688,-52.24609375,-57.12890625,-63.4765625,-47.36328125,-98.14453125
1656409126708.875,-54.19921875,-73.2421875,-79.58984375,-53.22265625,38.0859375
1656409126712.7812,-53.7109375,-65.4296875,-63.4765625,-41.015625,226.5625
1656409126716.6875,-66.89453125,-64.94140625,-43.9453125,-32.71484375,-26.85546875
1656409126720.5938,-69.3359375,-73.73046875,-63.4765625,-27.34375,-106.4453125
1656409126724.5,-62.01171875,-75.68359375,-62.01171875,-23.92578125,0.9765625
1656409126728.4062,-59.08203125,-68.359375,-48.33984375,-32.2265625,-71.77734375
1656409126732.3125,-63.4765625,-67.3828125,-47.8515625,-44.43359375,-125.9765625
1656409126736.2188,-55.17578125,-72.265625,-53.7109375,-43.9453125,-2.9296875
1656409126740.125,-48.828125,-70.3125,-57.12890625,-36.62109375,151.3671875
1656409126744.0312,-51.26953125,-64.453125,-50.78125,-40.0390625,48.828125
1656409126747.9375,-59.08203125,-63.96484375,-59.08203125,-56.640625,-64.453125
1656409126751.8438,-69.3359375,-67.3828125,-67.87109375,-65.4296875,-39.0625
1656409126755.75,-66.89453125,-60.546875,-66.40625,-46.875,142.578125
1656409126759.6562,-58.59375,-56.640625,-54.19921875,-32.71484375,61.03515625
1656409126763.5625,-57.6171875,-59.08203125,-61.5234375,-45.41015625,-168.9453125
1656409126767.4688,-70.3125,-61.03515625,-69.3359375,-53.7109375,-97.65625
1656409126771.375,-73.73046875,-60.05859375,-57.6171875,-55.17578125,50.78125
1656409126775.2812,-63.96484375,-50.78125,-44.43359375,-44.43359375,-71.77734375
1656409126779.1875,-56.640625,-46.38671875,-55.17578125,-35.64453125,-152.34375
1656409126783.0938,-54.6875,-46.38671875,-61.5234375,-38.0859375,-62.01171875
1656409126787,-56.640625,-45.8984375,-54.6875,-43.45703125,36.1328125
1656409126790.9062,-66.40625,-42.48046875,-58.10546875,-44.921875,11.71875
1656409126794.8125,-63.4765625,-42.96875,-52.24609375,-53.22265625,-21.97265625
1656409126798.7188,-60.05859375,-45.8984375,-63.96484375,-56.15234375,149.4140625
1656409126802.625,-71.2890625,-43.45703125,-67.87109375,-53.22265625,387.6953125
1656409126806.5312,-70.80078125,-43.45703125,-44.43359375,-63.4765625,61.03515625
1656409126810.4375,-75.1953125,-41.50390625,-57.12890625,-79.58984375,-167.48046875
1656409126814.3438,-78.61328125,-40.0390625,-77.1484375,-75.68359375,43.9453125
1656409126818.25,-66.89453125,-40.52734375,-55.17578125,-57.6171875,65.91796875
1656409126822.1562,-61.5234375,-38.0859375,-56.15234375,-58.59375,-129.39453125
1656409126826.0625,-77.63671875,-36.62109375,-72.75390625,-63.96484375,-136.23046875
1656409126829.9688,-81.54296875,-37.109375,-62.5,-66.40625,-22.4609375
1656409126833.875,-73.2421875,-31.25,-53.7109375,-71.77734375,-45.41015625
1656409126837.7812,-72.265625,-30.2734375,-61.03515625,-73.2421875,-21.484375
1656409126841.6875,-79.1015625,-33.69140625,-62.01171875,-66.40625,76.66015625
1656409126845.5938,-92.7734375,-35.15625,-56.640625,-62.5,104.98046875
1656409126849.5,-81.54296875,-40.0390625,-67.3828125,-70.80078125,-38.57421875
1656409126853.4062,-73.73046875,-41.50390625,-71.77734375,-83.984375,-91.796875
1656409126857.3125,-68.84765625,-35.64453125,-66.89453125,-78.125,-41.9921875
1656409126861.2188,-60.546875,-28.80859375,-73.2421875,-66.89453125,245.1171875
1656409126865.125,-69.3359375,-34.66796875,-58.59375,-69.82421875,133.7890625
1656409126869.0312,-71.77734375,-42.48046875,-69.3359375,-83.0078125,-145.99609375
1656409126872.9375,-55.6640625,-36.62109375,-81.0546875,-82.03125,-96.19140625
1656409126876.8438,-54.6875,-35.64453125,-70.80078125,-77.63671875,-81.54296875
1656409126880.75,-64.94140625,-34.66796875,-69.82421875,-70.3125,-107.91015625
1656409126884.6562,-59.08203125,-33.69140625,-79.1015625,-48.828125,-90.33203125
1656409126888.5625,-72.265625,-37.109375,-92.28515625,-60.05859375,95.703125
1656409126892.4688,-84.47265625,-37.59765625,-73.73046875,-72.265625,210.44921875
1656409126896.375,-68.359375,-34.66796875,-50.29296875,-64.453125,-49.8046875
1656409126900.2812,-54.19921875,-38.0859375,-67.3828125,-61.5234375,-116.2109375
1656409126904.1875,-62.01171875,-42.48046875,-77.63671875,-67.3828125,-34.66796875
1656409126908.0938,-76.171875,-45.41015625,-78.61328125,-74.70703125,-54.6875
1656409126912,-82.51953125,-48.33984375,-77.1484375,-77.63671875,-94.23828125
1656409126915.9062,-91.30859375,-45.8984375,-76.66015625,-68.84765625,-115.72265625
1656409126919.8125,-89.35546875,-53.22265625,-92.28515625,-63.96484375,76.171875
1656409126923.7188,-82.51953125,-58.10546875,-82.51953125,-73.73046875,33.203125
1656409126927.625,-93.26171875,-62.5,-82.51953125,-91.796875,-125.48828125
1656409126931.5312,-101.07421875,-69.82421875,-104.00390625,-100.5859375,49.8046875
1656409126935.4375,-110.83984375,-65.4296875,-102.05078125,-91.796875,338.37890625
1656409126939.3438,-106.4453125,-63.96484375,-77.63671875,-84.47265625,102.05078125
1656409126943.25,-88.8671875,-67.87109375,-87.890625,-84.9609375,-132.32421875
1656409126947.1562,-96.19140625,-70.3125,-100.5859375,-84.9609375,-78.125
1656409126951.0625,-101.5625,-68.359375,-92.28515625,-83.984375,-67.87109375
1656409126954.9688,-83.49609375,-66.89453125,-91.796875,-79.1015625,-92.7734375
1656409126958.875,-65.91796875,-66.89453125,-98.6328125,-81.54296875,-130.37109375
1656409126962.7812,-73.73046875,-64.94140625,-105.95703125,-92.28515625,-99.609375
1656409126966.6875,-100.09765625,-61.03515625,-102.05078125,-90.33203125,-29.78515625
1656409126970.5938,-110.3515625,-58.59375,-94.7265625,-86.9140625,36.1328125
1656409126974.5,-114.2578125,-64.453125,-89.84375,-87.40234375,-96.6796875
1656409126978.4062,-99.12109375,-64.94140625,-100.09765625,-73.73046875,33.203125
1656409126982.3125,-88.8671875,-63.4765625,-89.84375,-64.94140625,465.33203125
1656409126986.2188,-94.23828125,-62.01171875,-61.5234375,-69.3359375,122.0703125
1656409126990.125,-92.28515625,-59.5703125,-74.21875,-84.47265625,-155.2734375
1656409126994.0312,-92.28515625,-62.01171875,-91.30859375,-87.890625,-16.6015625
1656409126997.9375,-80.56640625,-62.01171875,-85.44921875,-76.171875,-52.734375
1656409127001.8438,-92.28515625,-60.05859375,-80.078125,-69.3359375,-117.1875
1656409127005.75,-111.81640625,-57.12890625,-84.47265625,-79.1015625,-89.84375
1656409127009.6562,-110.83984375,-53.7109375,-83.49609375,-90.33203125,-60.546875
1656409127013.5625,-122.0703125,-57.6171875,-81.54296875,-88.8671875,-96.6796875
1656409127017.4688,-127.9296875,-59.5703125,-81.54296875,-80.56640625,-104.00390625
1656409127021.375,-112.3046875,-55.17578125,-83.984375,-72.265625,-89.84375
1656409127025.2812,-106.4453125,-54.6875,-88.37890625,-70.3125,38.0859375
1656409127029.1875,-104.98046875,-50.78125,-83.49609375,-72.265625,73.73046875
1656409127033.0938,-96.19140625,-48.33984375,-70.3125,-81.54296875,-66.89453125
1656409127037,-81.54296875,-46.38671875,-74.70703125,-79.1015625,-38.57421875
1656409127040.9062,-86.9140625,-50.78125,-102.05078125,-66.40625,272.94921875
1656409127044.8125,-97.65625,-44.921875,-74.70703125,-84.9609375,123.53515625
1656409127048.7188,-104.4921875,-42.48046875,-76.171875,-98.14453125,-140.625
1656409127052.625,-101.07421875,-44.43359375,-94.7265625,-88.8671875,-97.65625
1656409127056.5312,-95.703125,-39.55078125,-67.87109375,-86.42578125,5.37109375
1656409127060.4375,-99.12109375,-39.0625,-60.546875,-88.8671875,-65.91796875
1656409127064.3438,-88.37890625,-40.52734375,-76.66015625,-84.9609375,-122.55859375
1656409127068.25,-77.63671875,-38.0859375,-86.42578125,-89.84375,-64.94140625
1656409127072.1562,-70.3125,-36.62109375,-85.9375,-85.44921875,22.94921875
1656409127076.0625,-63.4765625,-33.69140625,-79.58984375,-76.171875,62.5
1656409127079.9688,-57.12890625,-29.78515625,-77.1484375,-68.359375,-92.28515625
1656409127083.875,-70.80078125,-39.0625,-99.12109375,-67.87109375,46.875
1656409127087.7812,-79.58984375,-40.0390625,-92.28515625,-75.68359375,436.5234375
1656409127091.6875,-71.2890625,-39.0625,-67.3828125,-83.49609375,94.23828125
1656409127095.5938,-89.84375,-49.8046875,-81.0546875,-89.84375,-146.484375
1656409127099.5,-93.75,-50.29296875,-85.9375,-83.984375,-25.87890625
1656409127103.4062,-73.73046875,-48.828125,-77.63671875,-82.51953125,-65.4296875
1656409127107.3125,-70.80078125,-46.875,-76.171875,-83.984375,-145.99609375
1656409127111.2188,-77.63671875,-41.9921875,-80.56640625,-84.47265625,-115.234375
1656409127115.125,-83.0078125,-45.8984375,-83.984375,-79.58984375,-57.6171875
1656409127119.0312,-76.66015625,-47.8515625,-69.82421875,-69.82421875,14.6484375
1656409127122.9375,-66.40625,-47.8515625,-67.87109375,-75.1953125,11.71875
1656409127126.8438,-77.63671875,-50.78125,-80.078125,-73.2421875,-33.69140625
1656409127130.75,-84.47265625,-50.29296875,-88.8671875,-72.75390625,213.8671875
1656409127134.6562,-66.40625,-45.41015625,-64.94140625,-83.0078125,121.58203125
1656409127138.5625,-63.96484375,-43.9453125,-61.03515625,-82.51953125,-137.20703125
1656409127142.4688,-73.73046875,-47.36328125,-85.44921875,-82.03125,-41.9921875
1656409127146.375,-71.77734375,-45.8984375,-80.56640625,-88.8671875,49.8046875
1656409127150.2812,-86.42578125,-45.8984375,-72.75390625,-93.75,-70.80078125
1656409127154.1875,-85.44921875,-45.41015625,-79.58984375,-98.6328125,-87.890625
1656409127158.0938,-79.1015625,-47.36328125,-85.9375,-92.28515625,-10.25390625
1656409127162,-87.890625,-48.33984375,-81.0546875,-83.0078125,-41.015625
1656409127165.9062,-95.703125,-46.38671875,-87.40234375,-88.37890625,0.48828125
1656409127169.8125,-99.12109375,-46.38671875,-83.49609375,-90.8203125,35.15625
1656409127173.7188,-77.1484375,-42.48046875,-83.49609375,-83.0078125,94.7265625
1656409127177.625,-56.640625,-36.1328125,-70.3125,-72.75390625,229.4921875
1656409127181.5312,-57.12890625,-40.52734375,-54.19921875,-74.21875,-56.640625
1656409127185.4375,-50.78125,-39.55078125,-65.91796875,-81.54296875,-136.23046875
1656409127189.3438,-43.45703125,-32.71484375,-66.89453125,-79.58984375,-17.08984375
1656409127193.25,-47.8515625,-33.69140625,-55.17578125,-80.078125,-73.73046875
1656409127197.1562,-60.05859375,-36.62109375,-52.24609375,-72.75390625,-120.60546875
1656409127201.0625,-61.5234375,-38.0859375,-61.03515625,-62.01171875,-16.11328125
1656409127204.9688,-74.21875,-41.015625,-64.453125,-64.453125,92.7734375
1656409127208.875,-108.88671875,-42.48046875,-60.05859375,-75.68359375,-15.625
1656409127212.7812,-112.3046875,-44.43359375,-65.91796875,-81.0546875,-19.53125
1656409127216.6875,-97.16796875,-41.50390625,-67.87109375,-64.453125,125.9765625
1656409127220.5938,-84.47265625,-39.0625,-74.21875,-50.29296875,327.1484375
1656409127224.5,-94.7265625,-41.50390625,-48.33984375,-68.84765625,174.8046875
1656409127228.4062,-113.28125,-40.52734375,-52.24609375,-79.58984375,-106.4453125
1656409127232.3125,-88.8671875,-30.2734375,-60.546875,-64.453125,-79.1015625
1656409127236.2188,-67.87109375,-24.4140625,-43.45703125,-61.5234375,-52.734375
1656409127240.125,-62.5,-24.4140625,-39.55078125,-58.59375,-70.80078125
1656409127244.0312,-53.22265625,-21.97265625,-43.9453125,-55.6640625,-115.72265625
1656409127247.9375,-56.15234375,-23.92578125,-52.24609375,-56.15234375,-81.0546875
1656409127251.8438,-80.078125,-29.296875,-46.38671875,-60.05859375,-29.296875
1656409127255.75,-88.8671875,-28.80859375,-50.78125,-63.96484375,-42.48046875
1656409127259.6562,-78.125,-25.390625,-66.40625,-62.01171875,-10.7421875
1656409127263.5625,-72.265625,-35.64453125,-77.63671875,-73.2421875,173.33984375
1656409127267.4688,-74.70703125,-38.0859375,-69.82421875,-83.49609375,338.8671875
1656409127271.375,-82.03125,-33.69140625,-52.24609375,-81.54296875,14.6484375
1656409127275.2812,-72.265625,-36.1328125,-61.03515625,-72.265625,-189.94140625
1656409127279.1875,-62.5,-32.71484375,-71.77734375,-62.5,31.25
1656409127283.0938,-71.77734375,-32.2265625,-52.734375,-65.4296875,98.14453125
1656409127287,-85.9375,-34.1796875,-47.36328125,-69.82421875,-116.2109375
1656409127290.9062,-98.14453125,-32.2265625,-62.01171875,-73.2421875,-112.3046875
1656409127294.8125,-83.49609375,-31.25,-62.98828125,-80.56640625,-30.76171875
1656409127298.7188,-68.359375,-26.85546875,-44.43359375,-67.87109375,-55.17578125
1656409127302.625,-76.171875,-28.80859375,-45.8984375,-55.6640625,-100.5859375
1656409127306.5312,-75.68359375,-28.3203125,-63.96484375,-42.48046875,-39.55078125
1656409127310.4375,-76.171875,-24.4140625,-65.91796875,-38.57421875,255.859375
1656409127314.3438,-91.796875,-24.4140625,-35.15625,-55.6640625,163.57421875
1656409127318.25,-87.40234375,-23.92578125,-36.1328125,-53.7109375,-133.30078125
1656409127322.1562,-64.453125,-26.3671875,-45.41015625,-47.8515625,-55.17578125
1656409127326.0625,-45.41015625,-28.80859375,-36.1328125,-51.7578125,21.484375
1656409127329.9688,-54.19921875,-27.34375,-42.96875,-57.6171875,-149.4140625
1656409127333.875,-66.40625,-26.85546875,-55.17578125,-64.94140625,-208.984375
1656409127337.7812,-62.98828125,-23.4375,-48.33984375,-54.19921875,-94.23828125
1656409127341.6875,-56.640625,-19.04296875,-39.55078125,-47.8515625,-31.73828125
1656409127345.5938,-60.05859375,-19.53125,-49.8046875,-58.10546875,-60.05859375
1656409127349.5,-70.80078125,-20.5078125,-52.24609375,-55.17578125,-91.30859375
1656409127353.4062,-75.1953125,-21.97265625,-60.546875,-47.36328125,37.59765625
1656409127357.3125,-76.171875,-22.4609375,-48.828125,-47.8515625,107.421875
1656409127361.2188,-83.49609375,-20.5078125,-34.66796875,-46.875,-51.26953125
1656409127365.125,-80.56640625,-19.04296875,-50.29296875,-48.33984375,-145.99609375
1656409127369.0312,-68.84765625,-23.92578125,-78.61328125,-58.10546875,34.1796875
1656409127372.9375,-62.01171875,-23.4375,-58.10546875,-65.91796875,201.171875
1656409127376.8438,-48.828125,-20.5078125,-43.45703125,-55.17578125,-16.6015625
1656409127380.75,-38.0859375,-25.87890625,-67.3828125,-47.8515625,-64.94140625
1656409127384.6562,-34.66796875,-26.3671875,-70.80078125,-49.8046875,56.15234375
1656409127388.5625,-50.78125,-20.99609375,-55.6640625,-57.12890625,1.46484375
1656409127392.4688,-62.5,-19.04296875,-57.12890625,-58.59375,-142.08984375
1656409127396.375,-59.5703125,-24.4140625,-63.4765625,-47.8515625,-67.3828125
1656409127400.2812,-81.0546875,-23.92578125,-62.01171875,-45.41015625,151.3671875
1656409127404.1875,-96.19140625,-15.625,-57.6171875,-48.828125,82.03125
1656409127408.0938,-86.42578125,-14.6484375,-48.828125,-55.17578125,-69.82421875
1656409127412,-80.078125,-21.484375,-61.03515625,-45.8984375,-26.85546875
1656409127415.9062,-80.56640625,-20.5078125,-78.125,-42.48046875,197.265625
1656409127419.8125,-71.2890625,-17.08984375,-50.78125,-54.6875,62.98828125
1656409127423.7188,-65.91796875,-21.97265625,-55.17578125,-66.40625,-98.6328125
1656409127427.625,-65.4296875,-24.90234375,-73.2421875,-73.73046875,-36.1328125
1656409127431.5312,-62.5,-24.90234375,-61.5234375,-68.359375,-36.1328125
1656409127435.4375,-50.29296875,-22.4609375,-60.546875,-59.08203125,-51.26953125
1656409127439.3438,-33.203125,-25.390625,-55.17578125,-45.8984375,-11.71875
1656409127443.25,-19.04296875,-30.76171875,-51.26953125,-44.921875,31.73828125
1656409127447.1562,-27.83203125,-28.80859375,-59.08203125,-52.24609375,133.30078125
1656409127451.0625,-56.640625,-29.78515625,-54.6875,-62.01171875,86.42578125
1656409127454.9688,-59.5703125,-36.62109375,-50.78125,-66.40625,-93.75
1656409127458.875,-54.6875,-36.62109375,-66.40625,-51.26953125,89.84375
1656409127462.7812,-70.80078125,-31.73828125,-51.26953125,-37.109375,336.9140625
1656409127466.6875,-82.03125,-32.2265625,-35.64453125,-53.22265625,-5.37109375
1656409127470.5938,-71.2890625,-32.2265625,-58.59375,-67.87109375,-161.62109375
1656409127474.5,-74.21875,-27.83203125,-60.546875,-53.7109375,-20.99609375
1656409127478.4062,-79.58984375,-34.1796875,-41.9921875,-47.36328125,-78.125
1656409127482.3125,-70.3125,-35.64453125,-41.9921875,-52.734375,-175.29296875
1656409127486.2188,-59.08203125,-31.25,-51.7578125,-56.15234375,-126.953125
1656409127490.125,-69.82421875,-27.83203125,-50.78125,-56.15234375,-23.92578125
1656409127494.0312,-83.49609375,-19.04296875,-45.41015625,-55.6640625,34.1796875
1656409127497.9375,-73.73046875,-10.7421875,-38.57421875,-50.78125,14.16015625
1656409127501.8438,-66.40625,-10.7421875,-43.9453125,-41.9921875,43.45703125
1656409127505.75,-75.68359375,-13.18359375,-66.40625,-43.9453125,277.34375
1656409127509.6562,-81.0546875,-7.8125,-39.55078125,-56.640625,206.54296875
1656409127513.5625,-82.03125,-11.71875,-31.73828125,-68.359375,-139.16015625
1656409127517.4688,-86.42578125,-21.97265625,-49.8046875,-65.4296875,-118.65234375
1656409127521.375,-81.0546875,-19.53125,-39.0625,-67.3828125,-62.98828125
1656409127525.2812,-76.171875,-17.578125,-38.0859375,-81.0546875,-123.046875
1656409127529.1875,-58.59375,-24.4140625,-44.43359375,-72.265625,-116.2109375
1656409127533.0938,-58.10546875,-23.4375,-43.9453125,-58.59375,-35.15625
1656409127537,-75.1953125,-17.578125,-34.1796875,-55.6640625,-35.64453125
1656409127540.9062,-67.87109375,-17.08984375,-10.7421875,-55.17578125,-53.22265625
1656409127544.8125,-77.1484375,-14.6484375,36.62109375,-53.7109375,47.36328125
1656409127548.7188,-84.9609375,-11.71875,62.01171875,-43.9453125,148.92578125
1656409127552.625,-74.21875,-7.32421875,74.21875,-38.0859375,250.48828125
1656409127556.5312,-59.5703125,-2.44140625,93.26171875,-35.15625,41.9921875
1656409127560.4375,-51.26953125,-8.7890625,76.66015625,-21.484375,-116.2109375
1656409127564.3438,-58.59375,-14.6484375,49.31640625,-23.92578125,42.96875
1656409127568.25,-57.12890625,-11.23046875,57.6171875,-40.0390625,14.6484375
1656409127572.1562,-47.36328125,-7.8125,60.05859375,-45.41015625,-130.859375
1656409127576.0625,-30.2734375,-3.90625,51.7578125,-32.2265625,-85.44921875
1656409127579.9688,-20.99609375,-2.44140625,45.8984375,-29.78515625,-6.34765625
1656409127583.875,-17.08984375,-9.765625,35.64453125,-46.875,-41.50390625
1656409127587.7812,-4.39453125,-13.18359375,20.99609375,-49.8046875,-16.11328125
1656409127591.6875,-10.25390625,-15.13671875,6.34765625,-50.29296875,43.45703125
1656409127595.5938,-25.390625,-19.04296875,-6.34765625,-41.015625,214.35546875
1656409127599.5,-11.23046875,-20.99609375,24.90234375,-34.66796875,116.2109375
1656409127603.4062,-6.8359375,-28.3203125,18.5546875,-49.31640625,-134.27734375
1656409127607.3125,-16.11328125,-26.3671875,-5.859375,-59.5703125,-128.41796875
1656409127611.2188,-19.04296875,-22.4609375,-5.859375,-54.6875,-90.33203125
1656409127615.125,-7.32421875,-24.4140625,-0.48828125,-42.48046875,-92.7734375
1656409127619.0312,0,-22.4609375,-1.46484375,-37.109375,-100.5859375
1656409127622.9375,-5.859375,-22.94921875,-22.4609375,-45.41015625,-69.3359375
1656409127626.8438,-6.8359375,-21.97265625,-17.578125,-49.31640625,-27.83203125
1656409127630.75,-13.18359375,-22.94921875,-17.578125,-62.98828125,-84.47265625
1656409127634.6562,-34.66796875,-26.85546875,-23.92578125,-59.08203125,-105.95703125
1656409127638.5625,-37.109375,-28.3203125,-37.109375,-48.828125,138.18359375
1656409127642.4688,-24.90234375,-21.97265625,-37.59765625,-61.5234375,322.265625
1656409127646.375,-21.484375,-11.71875,-19.04296875,-59.08203125,1.953125
1656409127650.2812,-36.62109375,-15.625,-34.66796875,-64.94140625,-133.7890625
1656409127654.1875,-53.22265625,-22.4609375,-49.31640625,-73.73046875,-75.68359375
1656409127658.0938,-42.48046875,-22.94921875,-42.96875,-64.94140625,-104.4921875
1656409127662,-26.3671875,-21.97265625,-44.921875,-56.640625,-113.28125
1656409127665.9062,-34.66796875,-24.90234375,-54.19921875,-57.12890625,-113.28125
1656409127669.8125,-49.31640625,-32.2265625,-53.7109375,-57.6171875,0.9765625
1656409127673.7188,-48.828125,-28.80859375,-34.66796875,-52.734375,66.40625
1656409127677.625,-44.43359375,-26.85546875,-30.76171875,-51.7578125,-20.5078125
1656409127681.5312,-49.31640625,-32.71484375,-48.33984375,-44.921875,55.6640625
1656409127685.4375,-71.77734375,-31.25,-63.4765625,-33.69140625,381.34765625
1656409127689.3438,-72.265625,-27.83203125,-37.109375,-43.45703125,279.78515625
1656409127693.25,-61.03515625,-35.64453125,-25.87890625,-53.7109375,-96.19140625
1656409127697.1562,-68.359375,-39.55078125,-46.38671875,-40.52734375,-118.1640625
1656409127701.0625,-61.5234375,-36.62109375,-47.8515625,-41.015625,-34.66796875
1656409127704.9688,-60.546875,-37.59765625,-52.734375,-49.8046875,-114.2578125
1656409127708.875,-65.91796875,-34.1796875,-57.12890625,-57.6171875,-147.94921875
1656409127712.7812,-44.43359375,-29.296875,-62.98828125,-59.5703125,-68.359375
1656409127716.6875,-53.22265625,-31.73828125,-55.17578125,-49.31640625,-57.6171875
1656409127720.5938,-61.5234375,-31.25,-47.8515625,-36.1328125,-90.8203125
1656409127724.5,-53.7109375,-25.390625,-57.6171875,-41.015625,-96.6796875
1656409127728.4062,-64.453125,-17.08984375,-68.359375,-53.22265625,-5.859375
1656409127732.3125,-57.6171875,-10.25390625,-60.05859375,-45.8984375,145.5078125
1656409127736.2188,-51.26953125,-9.765625,-39.0625,-38.57421875,45.41015625
1656409127740.125,-45.41015625,-13.18359375,-39.0625,-43.45703125,-88.8671875
1656409127744.0312,-41.9921875,-11.23046875,-63.4765625,-42.96875,41.015625
1656409127747.9375,-49.8046875,-6.34765625,-46.875,-38.0859375,175.78125
1656409127751.8438,-37.59765625,-11.71875,-28.80859375,-41.50390625,-29.296875
1656409127755.75,-24.4140625,-5.859375,-35.15625,-36.62109375,-129.8828125
1656409127759.6562,-17.578125,-1.953125,-41.9921875,-21.484375,71.2890625
1656409127763.5625,2.44140625,-5.859375,-33.69140625,-20.5078125,36.62109375
1656409127767.4688,-15.625,-0.9765625,-38.0859375,-37.59765625,-96.6796875
1656409127771.375,-24.90234375,-1.953125,-52.734375,-37.109375,-69.3359375
1656409127775.2812,-21.484375,-4.8828125,-47.8515625,-32.71484375,111.328125
1656409127779.1875,-32.2265625,-10.25390625,-40.0390625,-32.71484375,75.1953125
1656409127783.0938,-37.109375,-16.11328125,-35.64453125,-35.64453125,-119.140625
1656409127787,-45.41015625,-16.11328125,-40.0390625,-47.8515625,-46.875
1656409127790.9062,-43.45703125,-14.16015625,-44.921875,-42.96875,128.41796875
1656409127794.8125,-28.80859375,-10.25390625,-41.015625,-40.0390625,-46.38671875
1656409127798.7188,-32.2265625,-10.7421875,-44.921875,-42.96875,-192.87109375
1656409127802.625,-37.59765625,-9.27734375,-59.08203125,-39.0625,-89.84375
1656409127806.5312,-29.78515625,-3.41796875,-65.91796875,-31.25,285.64453125
1656409127810.4375,-22.4609375,-3.41796875,-35.15625,-34.1796875,145.01953125
1656409127814.3438,-31.73828125,-14.6484375,-38.0859375,-37.109375,-141.11328125
1656409127818.25,-50.78125,-28.80859375,-54.19921875,-33.69140625,-48.33984375
1656409127822.1562,-58.59375,-40.0390625,-48.33984375,-32.71484375,7.32421875
1656409127826.0625,-67.3828125,-44.43359375,-43.9453125,-35.64453125,-47.36328125
1656409127829.9688,-74.21875,-43.45703125,-42.96875,-48.33984375,-142.08984375
1656409127833.875,-73.2421875,-45.8984375,-61.03515625,-49.31640625,41.9921875
1656409127837.7812,-64.94140625,-42.96875,-47.36328125,-38.57421875,218.26171875
1656409127841.6875,-59.5703125,-37.59765625,-30.76171875,-41.015625,-52.734375
1656409127845.5938,-62.01171875,-42.48046875,-50.29296875,-42.96875,-138.671875
1656409127849.5,-69.82421875,-40.0390625,-61.5234375,-50.78125,55.17578125
1656409127853.4062,-68.359375,-32.71484375,-32.71484375,-47.36328125,16.11328125
1656409127857.3125,-67.3828125,-31.73828125,-31.25,-38.57421875,-116.2109375
1656409127861.2188,-47.8515625,-34.1796875,-50.29296875,-28.3203125,-53.7109375
1656409127865.125,-43.45703125,-34.1796875,-47.8515625,-31.73828125,-11.23046875
1656409127869.0312,-56.640625,-38.57421875,-44.43359375,-41.50390625,67.87109375
1656409127872.9375,-41.015625,-33.69140625,-15.13671875,-41.50390625,87.890625
1656409127876.8438,-37.59765625,-33.203125,-3.41796875,-33.69140625,11.23046875
1656409127880.75,-41.50390625,-38.0859375,-21.97265625,-26.3671875,263.18359375
1656409127884.6562,-57.6171875,-34.66796875,8.30078125,-41.015625,182.12890625
1656409127888.5625,-65.91796875,-34.66796875,9.765625,-56.15234375,-94.7265625
1656409127892.4688,-54.6875,-33.203125,-9.765625,-49.8046875,-116.2109375
1656409127896.375,-44.43359375,-28.3203125,1.46484375,-42.96875,-77.63671875
1656409127900.2812,-41.015625,-28.80859375,-3.41796875,-37.109375,-137.6953125
1656409127904.1875,-29.78515625,-32.2265625,-15.625,-35.64453125,-140.625
1656409127908.0938,-20.01953125,-31.25,-21.484375,-41.9921875,33.203125
1656409127912,-17.578125,-29.78515625,-18.5546875,-52.24609375,35.15625
1656409127915.9062,-9.765625,-25.390625,-45.41015625,-43.45703125,-10.25390625
1656409127919.8125,-26.85546875,-20.5078125,-65.4296875,-34.1796875,-20.5078125
1656409127923.7188,-31.73828125,-20.01953125,-80.56640625,-41.50390625,98.14453125
1656409127927.625,-35.15625,-20.01953125,-81.0546875,-46.875,236.81640625
1656409127931.5312,-36.1328125,-16.6015625,-61.03515625,-43.9453125,-39.55078125
1656409127935.4375,-25.390625,-16.6015625,-63.4765625,-38.0859375,-124.0234375
1656409127939.3438,-32.71484375,-20.99609375,-65.4296875,-38.0859375,2.44140625
1656409127943.25,-38.0859375,-20.5078125,-57.12890625,-42.48046875,-18.06640625
1656409127947.1562,-30.76171875,-13.671875,-50.29296875,-41.9921875,-95.21484375
1656409127951.0625,-36.1328125,-14.16015625,-54.19921875,-52.734375,-102.5390625
1656409127954.9688,-41.50390625,-12.6953125,-57.12890625,-52.24609375,-51.26953125
1656409127958.875,-33.203125,-9.27734375,-54.19921875,-38.0859375,-70.80078125
1656409127962.7812,-22.94921875,-12.6953125,-56.15234375,-40.52734375,-68.84765625
1656409127966.6875,-32.2265625,-12.20703125,-61.03515625,-51.7578125,71.2890625
1656409127970.5938,-56.640625,-13.671875,-73.73046875,-53.7109375,411.62109375
1656409127974.5,-55.17578125,-16.6015625,-41.9921875,-51.7578125,293.45703125
1656409127978.4062,-40.52734375,-10.7421875,-28.3203125,-34.1796875,-91.796875
1656409127982.3125,-40.52734375,-10.7421875,-41.015625,-34.1796875,-76.171875
1656409127986.2188,-59.08203125,-18.5546875,-37.109375,-44.921875,-53.7109375
1656409127990.125,-59.5703125,-20.01953125,-34.66796875,-46.875,-134.765625
1656409127994.0312,-38.57421875,-15.13671875,-38.57421875,-41.50390625,-143.5546875
1656409127997.9375,-17.08984375,-14.16015625,-41.015625,-28.3203125,-99.12109375
1656409128001.8438,-8.7890625,-19.04296875,-39.0625,-24.4140625,-84.47265625
1656409128005.75,-21.97265625,-20.01953125,-40.52734375,-25.87890625,-115.234375
1656409128009.6562,-36.1328125,-17.08984375,-37.109375,-35.15625,-103.02734375
1656409128013.5625,-38.57421875,-14.6484375,-37.59765625,-41.015625,121.58203125
1656409128017.4688,-37.109375,-14.16015625,-30.2734375,-20.01953125,270.01953125
1656409128021.375,-34.66796875,-13.18359375,-16.6015625,-13.18359375,24.90234375
1656409128025.2812,-44.921875,-11.23046875,-31.25,-20.5078125,-33.69140625
1656409128029.1875,-68.84765625,-16.11328125,-46.875,-31.25,46.38671875
1656409128033.0938,-68.84765625,-17.578125,-38.57421875,-42.96875,-13.18359375
1656409128037,-56.15234375,-16.11328125,-32.71484375,-43.9453125,-165.0390625
1656409128040.9062,-43.45703125,-19.04296875,-40.0390625,-37.109375,-123.53515625
1656409128044.8125,-40.0390625,-21.484375,-34.66796875,-30.2734375,7.8125
1656409128048.7188,-54.6875,-15.13671875,-29.296875,-41.015625,-71.2890625
1656409128052.625,-53.22265625,-8.7890625,-21.97265625,-40.0390625,-145.5078125
1656409128056.5312,-52.24609375,-7.8125,-27.83203125,-29.296875,-15.13671875
1656409128060.4375,-58.10546875,-14.6484375,-40.0390625,-25.87890625,287.109375
1656409128064.3438,-50.78125,-11.23046875,-16.11328125,-27.34375,152.34375
1656409128068.25,-56.640625,-7.8125,-20.99609375,-46.38671875,-125.48828125
1656409128072.1562,-57.12890625,-14.16015625,-41.015625,-56.15234375,-66.89453125
1656409128076.0625,-38.0859375,-12.6953125,-31.25,-40.52734375,4.39453125
1656409128079.9688,-29.78515625,-11.71875,-32.2265625,-27.83203125,-3.41796875
1656409128083.875,-41.50390625,-16.11328125,-39.55078125,-33.69140625,-9.27734375
1656409128087.7812,-50.78125,-18.06640625,-50.78125,-47.36328125,-18.5546875
1656409128091.6875,-71.77734375,-17.08984375,-45.8984375,-45.8984375,103.02734375
1656409128095.5938,-81.54296875,-11.71875,-29.296875,-39.55078125,42.48046875
1656409128099.5,-69.82421875,-8.30078125,-36.1328125,-36.62109375,-77.1484375
1656409128103.4062,-65.4296875,-8.7890625,-41.9921875,-38.0859375,91.796875
1656409128107.3125,-64.453125,-9.27734375,-35.15625,-47.36328125,241.2109375
1656409128111.2188,-42.48046875,-5.37109375,-29.78515625,-51.26953125,-25.390625
1656409128115.125,-29.296875,-0.9765625,-36.1328125,-38.0859375,-189.453125
1656409128119.0312,-27.34375,-1.953125,-49.8046875,-31.73828125,-8.30078125
1656409128122.9375,-28.3203125,-2.9296875,-44.43359375,-34.1796875,40.0390625
1656409128126.8438,-34.66796875,-2.44140625,-43.45703125,-41.9921875,-93.75
1656409128130.75,-39.55078125,-8.30078125,-56.15234375,-54.19921875,-91.30859375
1656409128134.6562,-30.2734375,-10.7421875,-57.6171875,-47.36328125,-22.4609375
1656409128138.5625,-18.5546875,-7.8125,-53.7109375,-33.69140625,-37.109375
1656409128142.4688,-20.5078125,-4.8828125,-43.45703125,-47.8515625,-40.0390625
1656409128146.375,-28.80859375,-6.8359375,-59.5703125,-60.05859375,-62.01171875
1656409128150.2812,-46.38671875,-13.18359375,-76.171875,-55.17578125,259.765625
1656409128154.1875,-38.57421875,-18.5546875,-46.38671875,-54.6875,297.36328125
1656409128158.0938,-23.92578125,-23.92578125,-42.48046875,-54.6875,-62.5
1656409128162,-41.015625,-27.83203125,-61.03515625,-57.12890625,-92.28515625
1656409128165.9062,-41.9921875,-24.90234375,-59.08203125,-49.31640625,-14.16015625
1656409128169.8125,-36.62109375,-18.5546875,-58.59375,-40.52734375,-67.3828125
1656409128173.7188,-66.89453125,-17.578125,-58.59375,-51.7578125,-138.18359375
1656409128177.625,-88.8671875,-21.484375,-54.19921875,-54.6875,-60.05859375
1656409128181.5312,-83.0078125,-20.99609375,-37.59765625,-41.9921875,205.56640625
1656409128185.4375,-74.21875,-20.99609375,-27.34375,-51.26953125,7.32421875
1656409128189.3438,-76.171875,-20.5078125,-43.9453125,-70.80078125,-186.03515625
1656409128193.25,-78.125,-18.5546875,-52.24609375,-75.68359375,-76.171875
1656409128197.1562,-73.2421875,-20.99609375,-49.8046875,-56.15234375,-25.390625
1656409128201.0625,-64.453125,-23.92578125,-50.29296875,-53.7109375,27.34375
1656409128204.9688,-76.171875,-23.92578125,-52.24609375,-64.94140625,25.390625
1656409128208.875,-173.33984375,-25.390625,-65.91796875,-63.4765625,68.84765625
1656409128212.7812,-302.24609375,-29.78515625,-62.98828125,-52.24609375,281.73828125
1656409128216.6875,-364.2578125,-29.78515625,-26.3671875,-46.875,52.734375
1656409128220.5938,-387.20703125,-26.3671875,-36.1328125,-45.41015625,-137.20703125
1656409128224.5,-393.06640625,-26.85546875,-54.19921875,-50.78125,-35.15625
1656409128228.4062,-400.87890625,-26.85546875,-44.921875,-51.7578125,-97.16796875
1656409128232.3125,-410.64453125,-26.3671875,-46.38671875,-50.29296875,-103.515625
1656409128236.2188,-412.59765625,-28.80859375,-56.640625,-50.78125,-48.33984375
1656409128240.125,-414.0625,-34.66796875,-65.4296875,-57.12890625,-19.04296875
1656409128244.0312,-414.0625,-37.59765625,-72.265625,-64.453125,15.13671875
1656409128247.9375,-412.59765625,-38.0859375,-63.4765625,-75.1953125,2.9296875
1656409128251.8438,-381.34765625,-35.64453125,-52.24609375,-66.89453125,-14.6484375
1656409128255.75,-354.98046875,-34.66796875,-43.45703125,-51.7578125,49.31640625
1656409128259.6562,-348.14453125,-37.109375,-37.109375,-50.29296875,47.8515625
1656409128263.5625,-330.56640625,-36.62109375,-39.55078125,-51.26953125,-68.359375
1656409128267.4688,-309.5703125,-42.96875,-51.7578125,-56.15234375,-73.2421875
1656409128271.375,-289.55078125,-42.48046875,-51.7578125,-55.6640625,244.62890625
1656409128275.2812,-270.5078125,-34.66796875,-9.765625,-48.828125,179.6875
1656409128279.1875,-247.55859375,-37.59765625,-9.27734375,-41.50390625,-122.55859375
1656409128283.0938,-225.5859375,-30.76171875,-26.3671875,-44.43359375,-91.30859375
1656409128287,-217.28515625,-25.87890625,-23.92578125,-60.05859375,-63.96484375
1656409128290.9062,-211.42578125,-32.71484375,-29.296875,-61.03515625,-41.015625
1656409128294.8125,-196.77734375,-32.71484375,-24.4140625,-48.828125,-55.6640625
1656409128298.7188,-175.78125,-33.203125,-32.2265625,-40.0390625,51.7578125
1656409128302.625,-177.24609375,-31.73828125,-35.15625,-33.69140625,234.375
1656409128306.5312,-187.01171875,-25.87890625,-18.5546875,-43.45703125,-22.4609375
1656409128310.4375,-175.29296875,-22.4609375,-24.90234375,-53.22265625,-160.64453125
1656409128314.3438,-153.80859375,-22.4609375,-37.109375,-48.33984375,-17.08984375
1656409128318.25,-140.625,-28.3203125,-33.69140625,-49.31640625,28.3203125
1656409128322.1562,-132.8125,-29.78515625,-29.78515625,-49.31640625,-124.0234375
1656409128326.0625,-139.6484375,-28.80859375,-35.15625,-47.8515625,-139.6484375
1656409128329.9688,-147.4609375,-28.80859375,-41.015625,-54.19921875,58.59375
1656409128333.875,-147.94921875,-27.34375,-29.78515625,-49.8046875,23.4375
1656409128337.7812,-149.4140625,-24.4140625,-37.59765625,-39.0625,-60.546875
1656409128341.6875,-156.25,-26.3671875,-47.36328125,-39.55078125,53.7109375
1656409128345.5938,-150.87890625,-25.87890625,-42.96875,-55.17578125,188.96484375
1656409128349.5,-147.94921875,-20.01953125,-29.78515625,-63.96484375,-20.5078125
1656409128353.4062,-140.625,-18.5546875,-22.94921875,-52.24609375,-188.96484375
1656409128357.3125,-122.55859375,-19.53125,-32.71484375,-41.015625,-90.33203125
1656409128361.2188,-114.2578125,-18.06640625,-36.1328125,-37.59765625,182.12890625
1656409128365.125,-119.140625,-24.4140625,-25.390625,-45.41015625,36.62109375
1656409128369.0312,-125.9765625,-31.73828125,-30.2734375,-46.38671875,-196.2890625
1656409128372.9375,-131.34765625,-27.83203125,-33.203125,-44.921875,-84.47265625
1656409128376.8438,-127.44140625,-24.90234375,-23.92578125,-54.6875,34.66796875
1656409128380.75,-114.2578125,-27.83203125,-28.3203125,-62.98828125,-26.85546875
1656409128384.6562,-111.328125,-26.3671875,-48.828125,-70.80078125,-74.21875
1656409128388.5625,-113.28125,-24.90234375,-62.01171875,-66.89453125,121.58203125
1656409128392.4688,-105.95703125,-28.3203125,-50.78125,-57.12890625,369.62890625
1656409128396.375,-97.16796875,-32.71484375,-20.01953125,-57.12890625,31.25
1656409128400.2812,-86.9140625,-32.71484375,-25.87890625,-50.78125,-132.8125
1656409128404.1875,-80.078125,-38.57421875,-41.50390625,-50.78125,-14.16015625
1656409128408.0938,-77.1484375,-39.55078125,-38.0859375,-68.359375,-79.1015625
1656409128412,-66.40625,-37.59765625,-35.15625,-75.1953125,-153.3203125
1656409128415.9062,-61.03515625,-40.52734375,-34.66796875,-61.03515625,-109.86328125
1656409128419.8125,-66.40625,-38.0859375,-39.55078125,-54.6875,-43.9453125
1656409128423.7188,-67.87109375,-32.2265625,-43.45703125,-55.17578125,-117.1875
1656409128427.625,-75.68359375,-32.71484375,-49.31640625,-57.6171875,-185.05859375
1656409128431.5312,-92.7734375,-36.62109375,-54.19921875,-58.10546875,-37.59765625
1656409128435.4375,-84.9609375,-34.1796875,-61.03515625,-48.828125,289.55078125
1656409128439.3438,-71.77734375,-31.73828125,-45.41015625,-49.31640625,193.359375
1656409128443.25,-72.75390625,-28.3203125,-36.1328125,-63.96484375,-71.77734375
1656409128447.1562,-73.73046875,-27.83203125,-57.12890625,-71.2890625,-7.8125
1656409128451.0625,-88.8671875,-31.25,-59.08203125,-72.75390625,138.18359375
1656409128454.9688,-84.47265625,-25.390625,-40.52734375,-65.91796875,-32.2265625
1656409128458.875,-58.10546875,-20.99609375,-42.48046875,-53.7109375,-142.578125
1656409128462.7812,-63.4765625,-22.94921875,-47.8515625,-57.6171875,-69.3359375
1656409128466.6875,-80.56640625,-27.83203125,-48.33984375,-74.21875,-56.640625
1656409128470.5938,-90.33203125,-25.87890625,-41.9921875,-73.73046875,-123.53515625
1656409128474.5,-84.9609375,-20.99609375,-41.015625,-62.98828125,-146.97265625
1656409128478.4062,-67.3828125,-24.4140625,-55.6640625,-55.6640625,77.1484375
1656409128482.3125,-56.640625,-25.390625,-49.31640625,-50.29296875,135.25390625
1656409128486.2188,-60.05859375,-26.85546875,-41.50390625,-60.546875,-71.77734375
1656409128490.125,-60.546875,-31.73828125,-55.6640625,-67.87109375,-140.13671875
1656409128494.0312,-55.6640625,-34.66796875,-68.359375,-59.08203125,62.98828125
1656409128497.9375,-72.265625,-33.203125,-57.6171875,-53.7109375,354.00390625
1656409128501.8438,-69.3359375,-27.83203125,-38.0859375,-50.29296875,59.08203125
1656409128505.75,-58.10546875,-27.34375,-50.29296875,-54.19921875,-161.62109375
1656409128509.6562,-62.5,-31.25,-53.7109375,-54.6875,-49.8046875
1656409128513.5625,-67.3828125,-35.64453125,-41.9921875,-43.45703125,-59.08203125
1656409128517.4688,-77.63671875,-31.25,-32.71484375,-41.015625,-109.86328125
1656409128521.375,-82.51953125,-29.296875,-47.36328125,-43.9453125,-45.8984375
1656409128525.2812,-89.35546875,-29.296875,-60.546875,-52.734375,77.63671875
1656409128529.1875,-92.7734375,-19.53125,-43.9453125,-67.3828125,45.41015625
1656409128533.0938,-86.42578125,-18.06640625,-40.0390625,-65.4296875,-110.83984375
1656409128537,-93.26171875,-26.85546875,-56.15234375,-57.6171875,-89.35546875
1656409128540.9062,-86.42578125,-27.83203125,-66.40625,-52.24609375,188.96484375
1656409128544.8125,-66.89453125,-22.4609375,-44.921875,-56.15234375,43.9453125
1656409128548.7188,-76.66015625,-19.53125,-50.78125,-66.40625,-135.25390625
1656409128552.625,-79.58984375,-18.06640625,-57.12890625,-62.98828125,-15.625
1656409128556.5312,-80.078125,-20.01953125,-37.59765625,-41.50390625,37.109375
1656409128560.4375,-89.35546875,-17.08984375,-37.59765625,-45.8984375,-97.16796875
1656409128564.3438,-75.68359375,-19.04296875,-53.7109375,-63.4765625,-160.64453125
1656409128568.25,-71.77734375,-20.01953125,-64.453125,-62.5,-60.05859375
1656409128572.1562,-81.0546875,-20.99609375,-61.03515625,-62.5,43.9453125
1656409128576.0625,-99.12109375,-23.4375,-48.33984375,-70.80078125,45.41015625
1656409128579.9688,-99.12109375,-22.4609375,-45.8984375,-72.265625,-53.22265625
1656409128583.875,-91.30859375,-22.94921875,-66.40625,-66.40625,53.22265625
1656409128587.7812,-98.14453125,-21.484375,-54.19921875,-64.453125,223.14453125
1656409128591.6875,-100.5859375,-24.90234375,-40.0390625,-67.3828125,-33.69140625
1656409128595.5938,-90.33203125,-26.3671875,-54.19921875,-54.19921875,-123.53515625
1656409128599.5,-76.171875,-25.87890625,-50.29296875,-38.57421875,5.37109375
1656409128603.4062,-64.453125,-28.80859375,-46.38671875,-48.33984375,-46.38671875
1656409128607.3125,-62.5,-25.390625,-55.6640625,-69.3359375,-65.4296875
1656409128611.2188,-67.87109375,-19.53125,-58.10546875,-62.98828125,31.73828125
1656409128615.125,-76.171875,-27.83203125,-61.5234375,-56.15234375,153.80859375
1656409128619.0312,-75.1953125,-39.0625,-64.453125,-61.5234375,171.875
1656409128622.9375,-62.98828125,-42.96875,-70.3125,-69.3359375,59.08203125
1656409128626.8438,-52.24609375,-42.48046875,-76.171875,-67.3828125,10.7421875
1656409128630.75,-50.78125,-40.0390625,-78.61328125,-58.10546875,201.171875
1656409128634.6562,-47.8515625,-33.69140625,-48.828125,-57.6171875,56.640625
1656409128638.5625,-27.34375,-33.203125,-45.8984375,-46.875,-162.109375
1656409128642.4688,-17.08984375,-33.69140625,-63.96484375,-47.8515625,-122.55859375
1656409128646.375,-27.34375,-34.1796875,-62.01171875,-62.98828125,-110.83984375
1656409128650.2812,-28.3203125,-36.62109375,-59.08203125,-60.546875,-116.2109375
1656409128654.1875,-22.94921875,-41.50390625,-61.03515625,-57.6171875,-116.2109375
1656409128658.0938,-29.296875,-47.36328125,-62.5,-49.8046875,-39.0625
1656409128662,-25.87890625,-47.8515625,-57.6171875,-53.22265625,0.9765625
1656409128665.9062,-14.6484375,-44.921875,-65.91796875,-63.4765625,14.6484375
1656409128669.8125,-16.11328125,-41.015625,-70.3125,-62.01171875,35.64453125
1656409128673.7188,-20.01953125,-41.50390625,-74.21875,-49.8046875,139.16015625
1656409128677.625,-19.53125,-42.96875,-75.1953125,-47.36328125,331.0546875
1656409128681.5312,-27.34375,-39.55078125,-52.734375,-56.15234375,20.01953125
1656409128685.4375,-34.1796875,-39.0625,-54.6875,-64.94140625,-194.3359375
1656409128689.3438,-31.73828125,-42.96875,-68.359375,-69.3359375,-93.75
1656409128693.25,-20.5078125,-42.96875,-59.08203125,-63.4765625,-121.58203125
1656409128697.1562,-11.23046875,-37.109375,-56.15234375,-54.19921875,-139.6484375
1656409128701.0625,-19.04296875,-36.1328125,-62.01171875,-50.78125,-101.07421875
1656409128704.9688,-27.83203125,-31.73828125,-55.6640625,-49.8046875,9.27734375
1656409128708.875,-21.97265625,-20.5078125,-47.36328125,-50.29296875,-41.50390625
1656409128712.7812,-17.578125,-21.484375,-46.38671875,-56.15234375,-89.84375
1656409128716.6875,-14.16015625,-29.296875,-48.828125,-53.7109375,9.765625
1656409128720.5938,12.20703125,-34.1796875,-59.5703125,-38.57421875,220.21484375
1656409128724.5,34.66796875,-34.66796875,-52.24609375,-47.36328125,97.16796875
1656409128728.4062,25.87890625,-36.62109375,-50.78125,-63.4765625,-123.53515625
1656409128732.3125,17.578125,-43.45703125,-56.15234375,-60.05859375,-20.01953125
1656409128736.2188,21.484375,-44.921875,-56.640625,-56.15234375,118.1640625
1656409128740.125,35.15625,-48.828125,-49.31640625,-61.5234375,-41.9921875
1656409128744.0312,42.48046875,-50.29296875,-61.5234375,-61.03515625,-139.6484375
1656409128747.9375,28.3203125,-49.31640625,-66.40625,-48.828125,-39.0625
1656409128751.8438,22.4609375,-43.45703125,-56.640625,-50.78125,-44.921875
1656409128755.75,39.55078125,-38.57421875,-52.734375,-43.9453125,-96.6796875
1656409128759.6562,48.828125,-41.9921875,-60.546875,-45.41015625,-6.34765625
1656409128763.5625,46.875,-46.38671875,-73.2421875,-56.640625,82.51953125
1656409128767.4688,57.6171875,-44.43359375,-66.40625,-59.08203125,6.8359375
1656409128771.375,63.96484375,-40.52734375,-51.7578125,-54.6875,-83.0078125
1656409128775.2812,72.265625,-39.55078125,-57.12890625,-47.36328125,-94.23828125
1656409128779.1875,77.1484375,-44.43359375,-67.3828125,-40.52734375,12.6953125
1656409128783.0938,78.125,-38.57421875,-49.31640625,-45.41015625,133.7890625
1656409128787,72.265625,-39.0625,-39.0625,-71.2890625,52.734375
1656409128790.9062,77.1484375,-46.875,-54.6875,-65.91796875,-45.8984375
1656409128794.8125,76.66015625,-49.31640625,-71.77734375,-53.22265625,131.8359375
1656409128798.7188,79.58984375,-49.31640625,-51.26953125,-48.33984375,135.25390625
1656409128802.625,94.7265625,-48.828125,-55.17578125,-50.29296875,-77.63671875
1656409128806.5312,85.44921875,-60.546875,-74.21875,-60.05859375,21.484375
1656409128810.4375,69.82421875,-82.03125,-80.56640625,-59.08203125,321.77734375
1656409128814.3438,60.546875,-93.75,-53.7109375,-65.91796875,167.96875
1656409128818.25,51.26953125,-92.7734375,-44.43359375,-62.01171875,-137.6953125
1656409128822.1562,58.59375,-95.21484375,-60.05859375,-52.24609375,-148.4375
1656409128826.0625,78.61328125,-96.6796875,-62.98828125,-52.734375,-127.9296875
1656409128829.9688,57.12890625,-95.21484375,-62.5,-65.4296875,-160.15625
1656409128833.875,37.59765625,-89.84375,-62.5,-62.5,-145.99609375
1656409128837.7812,46.38671875,-85.44921875,-62.01171875,-42.96875,-78.125
1656409128841.6875,43.45703125,-88.8671875,-58.59375,-42.96875,-16.11328125
1656409128845.5938,33.203125,-83.49609375,-56.15234375,-56.15234375,19.53125
1656409128849.5,33.203125,-77.1484375,-53.22265625,-49.31640625,-81.0546875
1656409128853.4062,34.1796875,-83.49609375,-62.5,-43.9453125,44.43359375
1656409128857.3125,33.69140625,-88.8671875,-62.98828125,-55.17578125,446.77734375
1656409128861.2188,46.38671875,-84.47265625,-38.57421875,-49.31640625,144.53125
1656409128865.125,38.0859375,-77.1484375,-44.921875,-40.52734375,-146.484375
1656409128869.0312,29.296875,-79.58984375,-54.19921875,-51.7578125,-19.53125
1656409128872.9375,38.0859375,-80.56640625,-35.15625,-44.921875,-57.6171875
1656409128876.8438,39.55078125,-75.68359375,-33.69140625,-45.8984375,-130.37109375
1656409128880.75,24.90234375,-75.68359375,-40.52734375,-47.36328125,-104.98046875
1656409128884.6562,14.6484375,-78.61328125,-35.64453125,-28.80859375,-56.640625
1656409128888.5625,13.18359375,-78.125,-37.109375,-44.43359375,-74.70703125
1656409128892.4688,12.20703125,-81.0546875,-44.921875,-60.05859375,-125
1656409128896.375,18.5546875,-93.75,-52.734375,-51.7578125,-107.91015625
1656409128900.2812,19.04296875,-99.609375,-55.6640625,-52.24609375,46.38671875
1656409128904.1875,6.8359375,-94.23828125,-56.640625,-60.546875,98.14453125
1656409128908.0938,-3.90625,-92.28515625,-51.26953125,-61.03515625,-12.6953125
1656409128912,-5.37109375,-93.26171875,-48.828125,-58.59375,-60.546875
1656409128915.9062,-15.13671875,-91.796875,-68.84765625,-56.15234375,247.0703125
1656409128919.8125,-20.01953125,-85.9375,-41.9921875,-49.31640625,218.26171875
1656409128923.7188,-14.16015625,-86.9140625,-35.64453125,-43.9453125,-112.3046875
1656409128927.625,3.90625,-90.8203125,-54.6875,-42.96875,-114.74609375
1656409128931.5312,17.08984375,-87.890625,-47.8515625,-52.24609375,-62.5
1656409128935.4375,14.6484375,-86.9140625,-46.875,-55.6640625,-100.09765625
1656409128939.3438,3.41796875,-83.49609375,-48.828125,-52.734375,-78.61328125
1656409128943.25,-8.7890625,-87.890625,-62.98828125,-62.5,-59.5703125
1656409128947.1562,-21.484375,-89.35546875,-71.2890625,-72.265625,3.90625
1656409128951.0625,-23.4375,-90.33203125,-60.05859375,-75.1953125,-9.27734375
1656409128954.9688,-28.3203125,-107.91015625,-59.5703125,-77.1484375,-133.30078125
1656409128958.875,-48.33984375,-121.09375,-80.56640625,-73.2421875,26.85546875
1656409128962.7812,-67.3828125,-126.46484375,-84.47265625,-64.94140625,347.16796875
1656409128966.6875,-52.734375,-121.09375,-53.7109375,-66.40625,73.73046875
1656409128970.5938,-41.50390625,-115.72265625,-59.08203125,-65.91796875,-119.140625
1656409128974.5,-56.640625,-117.67578125,-65.4296875,-50.29296875,-24.4140625
1656409128978.4062,-46.38671875,-112.3046875,-54.19921875,-41.015625,-94.23828125
1656409128982.3125,-36.1328125,-113.28125,-56.640625,-47.36328125,-165.52734375
1656409128986.2188,-47.8515625,-113.28125,-64.453125,-59.5703125,-114.2578125
1656409128990.125,-41.50390625,-104.4921875,-65.91796875,-68.359375,4.8828125
1656409128994.0312,-33.203125,-95.21484375,-62.5,-60.546875,108.3984375
1656409128997.9375,-41.50390625,-91.30859375,-56.640625,-60.546875,56.640625
1656409129001.8438,-44.43359375,-93.26171875,-70.80078125,-76.66015625,-19.04296875
1656409129005.75,-50.29296875,-91.796875,-83.49609375,-71.77734375,145.99609375
1656409129009.6562,-60.05859375,-82.51953125,-62.5,-74.21875,-19.53125
1656409129013.5625,-53.22265625,-75.68359375,-60.546875,-70.80078125,-223.14453125
1656409129017.4688,-46.875,-70.80078125,-76.171875,-47.8515625,-46.875
1656409129021.375,-37.59765625,-64.94140625,-71.2890625,-36.62109375,297.36328125
1656409129025.2812,-29.296875,-62.5,-46.38671875,-41.50390625,79.58984375
1656409129029.1875,-24.90234375,-69.3359375,-58.59375,-44.921875,-176.26953125
1656409129033.0938,-19.04296875,-76.171875,-75.68359375,-46.875,-59.08203125
1656409129037,-14.16015625,-74.70703125,-68.359375,-52.24609375,-38.57421875
1656409129040.9062,-8.30078125,-72.75390625,-70.80078125,-62.5,-31.73828125
1656409129044.8125,-10.7421875,-71.2890625,-71.77734375,-59.08203125,-13.18359375
1656409129048.7188,-22.94921875,-60.546875,-75.68359375,-58.59375,92.7734375
1656409129052.625,-27.34375,-54.6875,-71.2890625,-62.01171875,264.16015625
1656409129056.5312,-29.296875,-54.19921875,-50.29296875,-41.015625,-0.48828125
1656409129060.4375,-23.92578125,-53.7109375,-60.05859375,-43.9453125,-150.87890625
1656409129064.3438,-28.3203125,-59.5703125,-72.75390625,-53.7109375,-13.18359375
1656409129068.25,-32.71484375,-60.05859375,-70.80078125,-42.96875,-49.8046875
1656409129072.1562,-32.2265625,-51.26953125,-64.94140625,-44.921875,-138.18359375
1656409129076.0625,-31.25,-48.828125,-60.546875,-47.36328125,34.1796875
1656409129079.9688,-25.390625,-47.8515625,-62.98828125,-49.31640625,299.8046875
1656409129083.875,-28.3203125,-45.41015625,-50.78125,-54.6875,154.78515625
1656409129087.7812,-45.8984375,-46.875,-58.59375,-55.6640625,47.8515625
1656409129091.6875,-58.10546875,-42.48046875,-64.94140625,-53.7109375,159.1796875
1656409129095.5938,-56.15234375,-42.96875,-49.8046875,-52.734375,188.4765625
1656409129099.5,-48.33984375,-41.015625,-42.48046875,-57.6171875,67.87109375
1656409129103.4062,-43.45703125,-36.1328125,-54.19921875,-57.6171875,-49.31640625
1656409129107.3125,-47.36328125,-37.59765625,-59.5703125,-62.5,-34.66796875
1656409129111.2188,-57.12890625,-39.0625,-61.03515625,-61.5234375,277.83203125
1656409129115.125,-51.7578125,-38.57421875,-41.9921875,-57.12890625,201.66015625
1656409129119.0312,-58.59375,-39.55078125,-47.8515625,-61.03515625,-79.58984375
1656409129122.9375,-73.2421875,-41.9921875,-65.91796875,-51.7578125,-81.0546875
1656409129126.8438,-55.6640625,-44.921875,-54.6875,-44.43359375,-75.1953125
1656409129130.75,-56.15234375,-45.8984375,-47.8515625,-56.640625,-73.73046875
1656409129134.6562,-65.91796875,-44.43359375,-51.26953125,-57.6171875,-4.8828125
1656409129138.5625,-64.94140625,-45.41015625,-68.84765625,-50.78125,209.47265625
1656409129142.4688,-68.359375,-46.875,-72.75390625,-61.5234375,426.7578125
1656409129146.375,-58.59375,-42.48046875,-45.8984375,-67.3828125,71.77734375
1656409129150.2812,-57.12890625,-41.015625,-54.6875,-67.87109375,-117.1875
1656409129154.1875,-59.08203125,-46.875,-68.84765625,-69.3359375,43.45703125
1656409129158.0938,-54.6875,-47.36328125,-41.9921875,-56.15234375,47.36328125
1656409129162,-59.5703125,-42.48046875,-36.1328125,-54.6875,-55.17578125
1656409129165.9062,-51.7578125,-45.8984375,-55.17578125,-70.3125,-63.96484375
1656409129169.8125,-33.69140625,-46.875,-57.12890625,-66.40625,-26.85546875
1656409129173.7188,-10.25390625,-45.8984375,-46.875,-51.26953125,-37.109375
1656409129177.625,-23.4375,-54.19921875,-50.78125,-52.24609375,-61.5234375
1656409129181.5312,-43.9453125,-55.6640625,-67.3828125,-61.03515625,30.2734375
1656409129185.4375,-47.36328125,-47.8515625,-68.84765625,-49.8046875,332.03125
1656409129189.3438,-53.22265625,-39.0625,-41.015625,-39.55078125,169.43359375
1656409129193.25,-39.0625,-32.71484375,-43.45703125,-43.45703125,-103.515625
1656409129197.1562,-30.2734375,-38.57421875,-60.546875,-39.0625,59.08203125
1656409129201.0625,-45.8984375,-40.0390625,-54.19921875,-41.9921875,167.96875
1656409129204.9688,-47.8515625,-40.0390625,-43.45703125,-55.17578125,-33.203125
1656409129208.875,-38.0859375,-50.78125,-51.7578125,-55.17578125,-148.4375
