time,TP9,AF7,AF8,TP10,AUX
1644477829512.875,-19.04296875,-36.62109375,403.80859375,-15.625,-6.34765625
1644477829516.7812,-46.875,-36.62109375,292.48046875,-25.87890625,-103.02734375
1644477829520.6875,-67.3828125,-33.69140625,-129.8828125,-46.875,-92.28515625
1644477829524.5938,-70.3125,-34.1796875,-388.18359375,-46.875,-54.19921875
1644477829528.5,-36.62109375,-33.203125,2.9296875,-29.296875,-71.2890625
1644477829532.4062,-0.9765625,-29.78515625,236.81640625,-14.16015625,9.765625
1644477829536.3125,-14.16015625,-30.76171875,-71.77734375,-15.13671875,100.5859375
1644477829540.2188,-50.29296875,-31.73828125,-635.25390625,-34.66796875,219.7265625
1644477829544.125,-54.6875,-27.34375,-456.0546875,-49.8046875,85.44921875
1644477829548.0312,-17.578125,-32.2265625,114.2578125,-32.71484375,-1.46484375
1644477829551.9375,-0.48828125,-39.55078125,230.46875,-11.71875,81.54296875
1644477829555.8438,-22.94921875,-48.33984375,99.12109375,-20.99609375,68.359375
1644477829559.75,-42.96875,-44.921875,40.0390625,-42.48046875,-50.78125
1644477829563.6562,-56.640625,-35.64453125,-147.94921875,-47.8515625,-152.34375
1644477829567.5625,-34.1796875,-35.64453125,-116.69921875,-43.9453125,-70.80078125
1644477829571.4688,4.8828125,-30.2734375,283.203125,-25.87890625,9.27734375
1644477829575.375,4.8828125,-30.76171875,275.390625,-9.27734375,-53.22265625
1644477829579.2812,-19.53125,-32.71484375,-111.81640625,-26.85546875,3.41796875
1644477829583.1875,-46.875,-28.80859375,-645.99609375,-41.50390625,169.43359375
1644477829587.0938,-32.2265625,-28.3203125,-572.75390625,-19.53125,232.91015625
1644477829591,-3.90625,-24.90234375,318.84765625,5.859375,-6.34765625
1644477829594.9062,-11.71875,-27.34375,387.6953125,5.859375,-114.74609375
1644477829598.8125,-34.1796875,-34.66796875,-107.421875,-16.6015625,-76.66015625
1644477829602.7188,-49.31640625,-36.62109375,-302.734375,-30.76171875,-138.18359375
1644477829606.625,-30.76171875,-33.203125,-141.11328125,-20.99609375,-100.09765625
1644477829610.5312,9.765625,-27.34375,202.63671875,-6.8359375,27.83203125
1644477829614.4375,4.8828125,-29.296875,34.66796875,1.953125,167.48046875
1644477829618.3438,-31.25,-32.71484375,-27.83203125,-19.53125,39.0625
1644477829622.25,-51.26953125,-31.73828125,-142.578125,-35.15625,-161.1328125
1644477829626.1562,-36.1328125,-30.76171875,-322.265625,-13.18359375,-51.26953125
1644477829630.0625,3.41796875,-30.76171875,-310.546875,13.671875,337.890625
1644477829633.9688,5.859375,-29.78515625,51.7578125,1.953125,205.56640625
1644477829637.875,-28.80859375,-34.1796875,246.58203125,-25.390625,-162.109375
1644477829641.7812,-56.15234375,-41.015625,-212.40234375,-33.69140625,-204.1015625
1644477829645.6875,-42.96875,-42.48046875,-264.6484375,-26.3671875,-127.44140625
1644477829649.5938,-3.90625,-36.62109375,237.79296875,-11.23046875,-129.39453125
1644477829653.5,8.30078125,-31.25,363.28125,-1.953125,-132.8125
1644477829657.4062,-12.6953125,-32.71484375,31.25,-5.37109375,-102.5390625
1644477829661.3125,-36.62109375,-32.2265625,-308.59375,-20.5078125,-153.80859375
1644477829665.2188,-32.2265625,-23.92578125,-382.32421875,-28.3203125,-134.27734375
1644477829669.125,2.9296875,-22.94921875,138.18359375,-5.859375,-91.30859375
1644477829673.0312,18.5546875,-28.3203125,147.4609375,16.11328125,191.89453125
1644477829676.9375,-10.7421875,-31.25,-472.65625,4.39453125,479.4921875
1644477829680.8438,-47.8515625,-35.15625,-251.953125,-27.83203125,28.80859375
1644477829684.75,-46.38671875,-41.015625,-50.29296875,-32.2265625,-221.6796875
1644477829688.6562,-6.8359375,-36.62109375,-23.4375,-10.25390625,-18.5546875
1644477829692.5625,15.13671875,-28.3203125,296.875,3.90625,-23.92578125
1644477829696.4688,-3.90625,-38.57421875,315.91796875,-13.671875,-110.83984375
1644477829700.375,-41.50390625,-41.015625,-91.796875,-34.66796875,-104.98046875
1644477829704.2812,-55.6640625,-35.64453125,-372.55859375,-33.69140625,-57.12890625
1644477829708.1875,-17.578125,-34.66796875,29.78515625,-6.8359375,-41.50390625
1644477829712.0938,11.23046875,-37.109375,404.78515625,4.39453125,-46.38671875
1644477829716,-8.30078125,-39.55078125,146.97265625,-12.20703125,-48.33984375
1644477829719.9062,-41.015625,-39.55078125,-394.04296875,-22.94921875,41.9921875
1644477829723.8125,-54.6875,-37.59765625,-490.234375,-22.4609375,28.3203125
1644477829727.7188,-25.390625,-37.109375,-127.9296875,-16.11328125,-28.80859375
1644477829731.625,13.671875,-28.80859375,164.0625,5.37109375,25.390625
1644477829735.5312,8.7890625,-23.4375,-230.46875,17.08984375,268.06640625
1644477829739.4375,-25.87890625,-25.390625,-250.48828125,-7.8125,107.91015625
1644477829743.3438,-38.57421875,-21.484375,-58.10546875,-21.484375,-194.3359375
1644477829747.25,-13.671875,-22.4609375,-12.6953125,-6.34765625,-130.859375
1644477829751.1562,14.16015625,-26.3671875,328.61328125,3.90625,-38.0859375
1644477829755.0625,-1.953125,-25.87890625,423.33984375,2.9296875,-56.15234375
1644477829758.9688,-41.015625,-33.203125,69.3359375,-13.18359375,-135.25390625
1644477829762.875,-57.6171875,-36.1328125,-379.39453125,-26.3671875,-172.8515625
1644477829766.7812,-36.1328125,-30.2734375,-309.5703125,-21.97265625,-34.1796875
1644477829770.6875,0.48828125,-25.87890625,135.25390625,-7.32421875,108.88671875
1644477829774.5938,3.41796875,-34.66796875,322.75390625,-3.41796875,-47.8515625
1644477829778.5,-25.390625,-41.9921875,-229.98046875,-14.16015625,27.83203125
1644477829782.4062,-43.45703125,-31.25,-739.2578125,-31.73828125,247.55859375
1644477829786.3125,-16.6015625,-19.53125,-117.1875,-38.57421875,-59.5703125
1644477829790.2188,30.76171875,-18.5546875,410.64453125,-16.6015625,-134.27734375
1644477829794.125,31.73828125,-18.06640625,144.04296875,0.9765625,106.4453125
1644477829798.0312,-1.953125,-18.5546875,22.94921875,-17.08984375,6.8359375
1644477829801.9375,-26.85546875,-21.484375,-62.01171875,-38.0859375,-181.640625
1644477829805.8438,-26.3671875,-28.80859375,-136.71875,-31.25,-125.9765625
1644477829809.75,-8.7890625,-42.96875,124.0234375,-14.16015625,-11.23046875
1644477829813.6562,-2.9296875,-45.8984375,177.24609375,-6.8359375,53.7109375
1644477829817.5625,-27.83203125,-41.50390625,-23.92578125,-21.97265625,41.9921875
1644477829821.4688,-60.546875,-47.36328125,-307.12890625,-39.0625,-9.27734375
1644477829825.375,-46.875,-42.48046875,-658.69140625,-29.296875,167.96875
1644477829829.2812,-4.39453125,-32.71484375,12.20703125,-13.671875,64.453125
1644477829833.1875,5.37109375,-39.55078125,562.5,-7.32421875,-101.5625
1644477829837.0938,-18.06640625,-41.015625,125.48828125,-14.16015625,-0.48828125
1644477829841,-55.6640625,-39.0625,-262.6953125,-34.66796875,11.23046875
1644477829844.9062,-58.10546875,-37.59765625,-144.04296875,-34.1796875,-102.5390625
1644477829848.8125,-15.625,-31.73828125,266.11328125,-13.671875,-108.88671875
1644477829852.7188,4.39453125,-34.1796875,267.08984375,0,29.296875
1644477829856.625,-14.16015625,-34.1796875,29.78515625,-5.859375,61.5234375
1644477829860.5312,-45.8984375,-37.109375,-232.421875,-24.4140625,7.32421875
1644477829864.4375,-60.546875,-41.015625,-332.03125,-40.0390625,-13.671875
1644477829868.3438,-24.4140625,-41.50390625,-198.73046875,-15.625,149.4140625
1644477829872.25,1.953125,-41.9921875,-57.12890625,16.6015625,261.71875
1644477829876.1562,-19.53125,-40.0390625,257.32421875,-2.9296875,-56.640625
1644477829880.0625,-48.33984375,-37.59765625,45.41015625,-32.71484375,-172.36328125
1644477829883.9688,-50.29296875,-39.55078125,-309.5703125,-33.69140625,-84.9609375
1644477829887.875,-24.90234375,-43.9453125,35.64453125,-20.5078125,-119.140625
1644477829891.7812,9.27734375,-36.62109375,478.515625,-5.859375,-85.9375
1644477829895.6875,6.34765625,-32.71484375,264.16015625,-3.41796875,-9.27734375
1644477829899.5938,-31.25,-32.71484375,-258.7890625,-16.6015625,28.3203125
1644477829903.5,-42.96875,-30.76171875,-291.9921875,-27.34375,-74.21875
1644477829907.4062,-10.25390625,-28.80859375,-59.5703125,-20.99609375,-65.91796875
1644477829911.3125,16.11328125,-27.34375,124.51171875,-0.9765625,108.88671875
1644477829915.2188,11.71875,-27.34375,-228.515625,7.8125,336.9140625
1644477829919.125,-24.4140625,-20.01953125,-207.51953125,-8.7890625,177.734375
1644477829923.0312,-42.96875,-19.04296875,7.32421875,-27.83203125,-117.1875
1644477829926.9375,-11.23046875,-24.90234375,7.32421875,-15.625,-86.42578125
1644477829930.8438,16.6015625,-23.4375,327.63671875,8.30078125,-2.44140625
1644477829934.75,3.90625,-28.80859375,425.78125,1.953125,-38.0859375
1644477829938.6562,-31.73828125,-36.1328125,119.140625,-21.484375,-138.18359375
1644477829942.5625,-58.10546875,-37.59765625,-280.2734375,-41.9921875,-125.48828125
1644477829946.4688,-37.59765625,-36.1328125,-131.34765625,-36.1328125,-73.73046875
1644477829950.375,-0.48828125,-34.1796875,292.48046875,-8.30078125,-59.08203125
1644477829954.2812,0.9765625,-30.76171875,227.05078125,-3.41796875,19.04296875
1644477829958.1875,-20.5078125,-29.296875,-285.64453125,-11.71875,146.97265625
1644477829962.0938,-45.41015625,-26.3671875,-716.30859375,-21.484375,261.71875
1644477829966,-34.1796875,-23.4375,-117.67578125,-18.06640625,-24.90234375
1644477829969.9062,9.27734375,-24.90234375,421.875,5.37109375,-119.62890625
1644477829973.8125,17.08984375,-23.4375,197.75390625,17.08984375,110.83984375
1644477829977.7188,-9.765625,-22.94921875,91.30859375,5.859375,10.7421875
1644477829981.625,-37.109375,-29.296875,-1.46484375,-20.5078125,-185.05859375
1644477829985.5312,-35.64453125,-32.71484375,-116.69921875,-32.2265625,-143.06640625
1644477829989.4375,-2.44140625,-34.1796875,-62.01171875,-9.765625,94.7265625
1644477829993.3438,12.6953125,-30.76171875,222.65625,-9.27734375,52.734375
1644477829997.25,-6.34765625,-27.83203125,239.2578125,-26.3671875,-136.23046875
1644477830001.1562,-41.50390625,-32.2265625,-281.25,-31.73828125,-28.80859375
1644477830005.0625,-40.0390625,-33.69140625,-642.08984375,-28.80859375,302.24609375
1644477830008.9688,0.48828125,-29.78515625,37.59765625,-16.11328125,147.4609375
1644477830012.875,8.7890625,-25.390625,530.2734375,0.48828125,-87.40234375
1644477830016.7812,-11.71875,-21.97265625,69.82421875,0.9765625,27.83203125
1644477830020.6875,-46.875,-24.90234375,-426.7578125,-23.4375,159.66796875
1644477830024.5938,-57.6171875,-34.1796875,-176.7578125,-30.2734375,-28.80859375
1644477830028.5,-16.11328125,-33.69140625,231.4453125,-3.41796875,-137.20703125
1644477830032.4062,11.23046875,-33.203125,281.25,5.859375,-10.25390625
1644477830036.3125,-5.859375,-38.57421875,147.94921875,-9.27734375,-16.6015625
1644477830040.2188,-35.64453125,-32.71484375,-48.33984375,-26.3671875,-159.66796875
1644477830044.125,-47.36328125,-29.296875,-201.66015625,-38.57421875,-183.10546875
1644477830048.0312,-16.6015625,-35.15625,-152.83203125,-25.390625,-48.828125
1644477830051.9375,16.11328125,-32.2265625,-9.765625,-1.46484375,48.33984375
1644477830055.8438,4.39453125,-26.3671875,68.84765625,-11.71875,34.66796875
1644477830059.75,-31.73828125,-28.80859375,-5.859375,-35.64453125,-92.28515625
1644477830063.6562,-42.96875,-31.25,-482.421875,-38.57421875,38.0859375
1644477830067.5625,-19.53125,-27.83203125,-336.9140625,-26.3671875,94.23828125
1644477830071.4688,7.8125,-27.34375,336.9140625,-11.71875,-95.21484375
1644477830075.375,-2.9296875,-32.2265625,158.69140625,-4.39453125,-38.57421875
1644477830079.2812,-32.2265625,-33.203125,-353.515625,-14.6484375,67.87109375
1644477830083.1875,-49.8046875,-24.90234375,-314.94140625,-31.73828125,-68.359375
1644477830087.0938,-24.90234375,-19.53125,48.828125,-23.92578125,-156.73828125
1644477830091,3.90625,-24.90234375,267.578125,-2.44140625,-58.10546875
1644477830094.9062,-12.6953125,-24.4140625,98.6328125,-7.8125,65.91796875
1644477830098.8125,-46.38671875,-23.92578125,-179.19921875,-24.4140625,13.18359375
1644477830102.7188,-62.5,-18.5546875,-217.7734375,-28.80859375,-139.16015625
1644477830106.625,-43.9453125,-14.6484375,-115.72265625,-20.01953125,-103.02734375
1644477830110.5312,0.48828125,-22.94921875,-241.69921875,0.9765625,227.05078125
1644477830114.4375,10.7421875,-15.13671875,110.3515625,12.20703125,123.53515625
1644477830118.3438,-23.92578125,-15.625,250.9765625,-13.18359375,-136.23046875
1644477830122.25,-55.17578125,-25.390625,-251.46484375,-32.2265625,-160.64453125
1644477830126.1562,-45.41015625,-21.484375,-175.29296875,-27.83203125,-117.67578125
1644477830130.0625,-5.859375,-18.5546875,288.57421875,-7.32421875,-59.08203125
1644477830133.9688,6.34765625,-16.6015625,248.53515625,1.953125,-22.94921875
1644477830137.875,-24.4140625,-22.4609375,-143.5546875,-21.97265625,44.43359375
1644477830141.7812,-53.22265625,-23.92578125,-479.4921875,-37.59765625,83.0078125
1644477830145.6875,-43.9453125,-24.4140625,-344.23828125,-23.92578125,-12.20703125
1644477830149.5938,-6.8359375,-26.85546875,194.82421875,-7.32421875,-98.14453125
1644477830153.5,8.7890625,-22.4609375,76.171875,6.34765625,96.6796875
1644477830157.4062,-26.3671875,-27.83203125,-307.6171875,-9.27734375,202.63671875
1644477830161.3125,-72.75390625,-34.66796875,-137.6953125,-31.73828125,-103.515625
1644477830165.2188,-63.96484375,-36.1328125,-115.234375,-22.94921875,-144.53125
1644477830169.125,-14.6484375,-37.109375,10.25390625,-3.90625,25.390625
1644477830173.0312,1.953125,-39.0625,300.29296875,0.9765625,3.41796875
1644477830176.9375,-18.06640625,-33.69140625,209.47265625,-14.6484375,-79.1015625
1644477830180.8438,-50.78125,-30.2734375,-220.703125,-32.2265625,-82.51953125
1644477830184.75,-50.78125,-30.76171875,-452.63671875,-28.80859375,-53.7109375
1644477830188.6562,-18.5546875,-28.80859375,-170.8984375,-10.25390625,36.62109375
1644477830192.5625,5.37109375,-28.3203125,91.30859375,2.9296875,72.75390625
1644477830196.4688,-13.18359375,-34.1796875,-38.0859375,-6.8359375,95.703125
1644477830200.375,-47.8515625,-39.55078125,-694.3359375,-28.80859375,335.9375
1644477830204.2812,-51.7578125,-33.69140625,-647.94921875,-39.55078125,222.65625
1644477830208.1875,-22.94921875,-28.3203125,155.76171875,-26.3671875,-37.59765625
1644477830212.0938,-5.37109375,-31.73828125,326.66015625,-17.578125,-2.44140625
1644477830216,-19.53125,-31.73828125,145.99609375,-20.5078125,-5.859375
1644477830219.9062,-44.43359375,-26.3671875,-54.19921875,-41.015625,-112.79296875
1644477830223.8125,-49.8046875,-27.83203125,-249.51171875,-56.15234375,-142.578125
1644477830227.7188,-16.6015625,-32.2265625,-156.73828125,-30.76171875,-31.73828125
1644477830231.625,8.30078125,-28.80859375,185.05859375,-12.6953125,22.94921875
1644477830235.5312,6.8359375,-21.484375,62.98828125,-12.20703125,73.2421875
1644477830239.4375,-18.06640625,-25.87890625,-260.7421875,-19.53125,78.61328125
1644477830243.3438,-49.31640625,-32.2265625,-588.8671875,-36.62109375,111.328125
1644477830247.25,-22.4609375,-20.5078125,-554.6875,-21.484375,233.3984375
1644477830251.1562,12.20703125,-14.6484375,163.0859375,1.953125,41.015625
1644477830255.0625,-0.48828125,-22.4609375,322.75390625,-11.23046875,-51.7578125
1644477830258.9688,-28.80859375,-21.97265625,-196.77734375,-33.203125,114.74609375
1644477830262.875,-48.33984375,-19.04296875,-329.1015625,-45.8984375,-5.37109375
1644477830266.7812,-34.66796875,-21.484375,8.7890625,-37.109375,-149.4140625
1644477830270.6875,6.34765625,-19.04296875,244.62890625,-9.765625,-54.6875
1644477830274.5938,4.8828125,-20.5078125,155.2734375,-7.8125,19.04296875
1644477830278.5,-31.25,-20.99609375,-17.08984375,-33.203125,-69.82421875
1644477830282.4062,-51.7578125,-20.5078125,-305.17578125,-41.9921875,-39.55078125
1644477830286.3125,-29.296875,-19.04296875,-391.6015625,-28.3203125,131.34765625
1644477830290.2188,9.765625,-17.08984375,-308.59375,0.9765625,343.26171875
1644477830294.125,10.7421875,-19.04296875,73.2421875,0.9765625,162.59765625
1644477830298.0312,-14.16015625,-17.578125,197.75390625,-21.97265625,-128.41796875
1644477830301.9375,-41.9921875,-19.04296875,-197.265625,-33.69140625,-122.55859375
1644477830305.8438,-44.43359375,-20.01953125,-188.96484375,-33.203125,-30.76171875
1644477830309.75,-10.7421875,-17.578125,132.8125,-13.671875,18.06640625
1644477830313.6562,6.34765625,-20.5078125,333.0078125,-0.9765625,-7.8125
1644477830317.5625,-22.94921875,-24.90234375,29.78515625,-20.5078125,0.48828125
1644477830321.4688,-59.5703125,-24.90234375,-360.3515625,-49.31640625,16.6015625
1644477830325.375,-48.828125,-22.94921875,-206.54296875,-37.59765625,-63.96484375
1644477830329.2812,-0.9765625,-15.625,119.62890625,0,23.4375
1644477830333.1875,6.8359375,-21.484375,-25.87890625,8.30078125,302.24609375
1644477830337.0938,-22.94921875,-31.25,-378.41796875,-13.671875,340.8203125
1644477830341,-44.921875,-35.15625,-178.7109375,-35.15625,-43.45703125
1644477830344.9062,-41.015625,-37.109375,-131.8359375,-31.25,-140.13671875
1644477830348.8125,-0.48828125,-32.2265625,14.6484375,-5.37109375,62.5
1644477830352.7188,17.08984375,-26.3671875,320.80078125,14.6484375,56.15234375
1644477830356.625,-11.71875,-28.3203125,204.1015625,8.30078125,-71.2890625
1644477830360.5312,-47.36328125,-31.73828125,-145.01953125,-22.94921875,-57.6171875
1644477830364.4375,-58.10546875,-27.83203125,-445.3125,-33.69140625,-13.671875
1644477830368.3438,-27.83203125,-22.94921875,-177.24609375,-23.92578125,44.921875
1644477830372.25,-3.41796875,-20.5078125,258.7890625,-23.92578125,41.015625
1644477830376.1562,-24.90234375,-26.3671875,106.4453125,-24.90234375,133.7890625
1644477830380.0625,-45.8984375,-29.78515625,-653.80859375,-24.4140625,495.1171875
1644477830383.9688,-55.6640625,-20.01953125,-737.79296875,-46.875,364.2578125
1644477830387.875,-33.69140625,-9.765625,90.33203125,-54.6875,-7.8125
1644477830391.7812,2.44140625,-11.23046875,376.46484375,-21.97265625,36.1328125
1644477830395.6875,5.859375,-13.671875,194.3359375,-10.7421875,55.6640625
1644477830399.5938,-15.13671875,-20.99609375,6.8359375,-24.90234375,-62.98828125
1644477830403.5,-35.64453125,-30.2734375,-210.9375,-38.0859375,-91.30859375
1644477830407.4062,-10.7421875,-34.66796875,-125,-26.85546875,11.71875
1644477830411.3125,16.11328125,-38.57421875,189.94140625,-1.46484375,45.41015625
1644477830415.2188,10.25390625,-39.55078125,223.6328125,1.953125,-22.94921875
1644477830419.125,-11.71875,-41.50390625,-35.64453125,-12.20703125,-67.3828125
1644477830423.0312,-26.85546875,-38.57421875,-494.62890625,-20.01953125,101.07421875
1644477830426.9375,-6.8359375,-33.203125,-456.0546875,-14.16015625,198.2421875
1644477830430.8438,21.97265625,-32.71484375,104.00390625,3.90625,74.21875
1644477830434.75,17.08984375,-34.66796875,310.05859375,3.90625,-38.57421875
1644477830438.6562,-20.01953125,-38.57421875,-250,-6.34765625,94.23828125
1644477830442.5625,-48.33984375,-41.50390625,-667.48046875,-24.90234375,200.68359375
1644477830446.4688,-33.69140625,-38.0859375,-47.8515625,-23.4375,-37.59765625
1644477830450.375,4.8828125,-36.62109375,378.90625,-1.46484375,-58.10546875
1644477830454.2812,12.20703125,-34.1796875,233.3984375,3.90625,53.7109375
1644477830458.1875,-17.08984375,-36.1328125,101.07421875,-7.8125,8.7890625
1644477830462.0938,-53.7109375,-41.9921875,-124.51171875,-33.203125,-102.05078125
1644477830466,-38.57421875,-39.0625,-224.609375,-22.4609375,-121.09375
1644477830469.9062,1.46484375,-37.109375,-41.015625,5.859375,59.08203125
1644477830473.8125,-3.41796875,-42.48046875,99.12109375,5.37109375,151.3671875
1644477830477.7188,-35.64453125,-43.45703125,41.9921875,-23.92578125,-17.578125
1644477830481.625,-55.6640625,-42.48046875,-254.39453125,-44.43359375,-88.8671875
1644477830485.5312,-30.76171875,-37.109375,-725.09765625,-28.3203125,282.2265625
1644477830489.4375,12.20703125,-27.83203125,-103.515625,0.9765625,172.36328125
1644477830493.3438,20.99609375,-32.2265625,505.859375,8.7890625,-113.28125
1644477830497.25,-10.7421875,-38.57421875,140.625,-12.20703125,-60.05859375
1644477830501.1562,-48.33984375,-44.43359375,-206.54296875,-41.50390625,-84.47265625
1644477830505.0625,-46.38671875,-48.828125,-171.875,-38.0859375,-173.33984375
1644477830508.9688,-7.32421875,-54.19921875,147.4609375,-14.16015625,-162.59765625
1644477830512.875,3.41796875,-52.24609375,204.58984375,-6.8359375,-39.0625
1644477830516.7812,-12.20703125,-42.48046875,-87.40234375,-8.7890625,8.30078125
1644477830520.6875,-41.9921875,-41.015625,-410.64453125,-24.4140625,-49.8046875
1644477830524.5938,-45.8984375,-44.43359375,-301.7578125,-22.94921875,-162.59765625
1644477830528.5,-7.32421875,-48.33984375,-191.40625,2.9296875,25.390625
1644477830532.4062,-4.39453125,-38.57421875,-131.8359375,-4.39453125,239.2578125
1644477830536.3125,-26.3671875,-24.90234375,246.09375,-29.296875,-30.76171875
1644477830540.2188,-38.0859375,-22.4609375,-36.62109375,-34.1796875,-143.5546875
1644477830544.125,-34.1796875,-21.97265625,-517.08984375,-26.85546875,-18.06640625
1644477830548.0312,-7.32421875,-16.6015625,-27.83203125,-7.8125,-46.875
1644477830551.9375,7.8125,-22.4609375,464.84375,-4.8828125,-93.75
1644477830555.8438,-18.5546875,-30.76171875,210.9375,-23.4375,-62.5
1644477830559.75,-58.10546875,-35.15625,-274.90234375,-52.734375,-24.90234375
1644477830563.6562,-62.98828125,-32.2265625,-461.9140625,-53.22265625,-60.05859375
1644477830567.5625,-27.34375,-25.87890625,-186.03515625,-24.4140625,-69.3359375
1644477830571.4688,-4.39453125,-30.76171875,133.7890625,-20.99609375,10.25390625
1644477830575.375,-9.765625,-33.69140625,-204.1015625,-23.4375,297.36328125
1644477830579.2812,-35.15625,-27.83203125,-234.86328125,-41.9921875,125
1644477830583.1875,-56.15234375,-23.4375,-84.47265625,-56.15234375,-183.59375
1644477830587.0938,-32.71484375,-26.85546875,-70.3125,-42.96875,-60.546875
1644477830591,0.48828125,-29.296875,196.77734375,-23.4375,35.64453125
1644477830594.9062,8.30078125,-25.390625,333.0078125,-15.625,-59.5703125
1644477830598.8125,-16.11328125,-26.3671875,66.89453125,-33.203125,-107.91015625
1644477830602.7188,-45.41015625,-32.71484375,-409.1796875,-46.875,4.39453125
1644477830606.625,-27.83203125,-32.2265625,-324.70703125,-41.015625,-3.90625
1644477830610.5312,13.18359375,-29.78515625,155.76171875,-11.23046875,14.6484375
1644477830614.4375,11.71875,-31.25,235.83984375,-4.39453125,108.3984375
1644477830618.3438,-14.16015625,-31.25,-238.28125,-26.3671875,139.6484375
1644477830622.25,-41.015625,-33.203125,-681.640625,-40.52734375,152.83203125
1644477830626.1562,-36.62109375,-29.296875,-134.765625,-33.203125,-108.3984375
1644477830630.0625,1.46484375,-25.390625,373.53515625,-8.7890625,-101.07421875
1644477830633.9688,-3.90625,-34.66796875,229.4921875,-18.5546875,50.29296875
1644477830637.875,-28.80859375,-35.15625,44.921875,-37.59765625,-38.57421875
1644477830641.7812,-54.6875,-32.71484375,-105.95703125,-44.43359375,-151.85546875
1644477830645.6875,-53.22265625,-34.1796875,-163.57421875,-38.57421875,-89.35546875
1644477830649.5938,-15.13671875,-31.73828125,71.2890625,-13.671875,52.24609375
1644477830653.5,-7.8125,-34.1796875,254.39453125,-13.671875,41.015625
1644477830657.4062,-35.15625,-42.96875,-30.76171875,-32.71484375,-6.8359375
1644477830661.3125,-58.10546875,-45.41015625,-426.26953125,-43.45703125,44.43359375
1644477830665.2188,-51.7578125,-39.0625,-796.875,-29.78515625,416.9921875
1644477830669.125,-11.23046875,-30.76171875,-266.11328125,-5.37109375,376.46484375
1644477830673.0312,7.8125,-37.109375,495.60546875,1.46484375,27.34375
1644477830676.9375,-12.6953125,-50.78125,189.94140625,-19.53125,17.578125
1644477830680.8438,-45.41015625,-50.29296875,-220.703125,-38.57421875,28.3203125
1644477830684.75,-48.828125,-46.38671875,-107.91015625,-32.71484375,-33.203125
1644477830688.6562,-4.39453125,-43.45703125,236.81640625,-13.18359375,-10.7421875
1644477830692.5625,22.94921875,-36.1328125,253.90625,8.30078125,58.10546875
1644477830696.4688,-1.953125,-36.1328125,63.96484375,-1.953125,31.25
1644477830700.375,-34.1796875,-34.66796875,-151.85546875,-19.53125,-54.19921875
1644477830704.2812,-41.015625,-35.15625,-329.1015625,-27.34375,3.90625
1644477830708.1875,-7.8125,-31.25,-287.109375,-14.6484375,284.66796875
1644477830712.0938,7.32421875,-25.390625,-140.625,0.48828125,405.76171875
1644477830716,-11.71875,-29.78515625,226.07421875,-9.27734375,129.8828125
1644477830719.9062,-31.25,-34.1796875,-43.9453125,-22.94921875,31.25
1644477830723.8125,-39.55078125,-30.76171875,-463.37890625,-30.76171875,147.4609375
1644477830727.7188,-24.90234375,-32.71484375,-45.41015625,-18.5546875,75.68359375
1644477830731.625,0.48828125,-35.64453125,481.4453125,-9.765625,-10.7421875
1644477830735.5312,-2.44140625,-30.2734375,301.7578125,-18.06640625,32.2265625
1644477830739.4375,-31.73828125,-22.4609375,-146.484375,-26.85546875,24.90234375
1644477830743.3438,-49.31640625,-13.18359375,-255.37109375,-31.25,-65.91796875
1644477830747.25,-21.484375,-9.27734375,20.5078125,-19.53125,-110.83984375
1644477830751.1562,9.765625,-12.6953125,126.46484375,-3.41796875,89.84375
1644477830755.0625,-2.9296875,-18.06640625,-302.24609375,-15.625,430.17578125
1644477830758.9688,-27.83203125,-11.71875,-199.70703125,-31.73828125,167.48046875
1644477830762.875,-32.71484375,-13.18359375,-92.7734375,-27.34375,-187.5
1644477830766.7812,-34.1796875,-23.4375,-98.14453125,-30.76171875,-66.40625
1644477830770.6875,-19.04296875,-23.4375,237.3046875,-16.11328125,69.82421875
1644477830774.5938,-31.73828125,-31.25,307.12890625,-19.53125,8.7890625
1644477830778.5,-74.70703125,-39.55078125,-11.71875,-53.22265625,20.01953125
1644477830782.4062,-103.515625,-46.875,-403.3203125,-72.75390625,39.0625
1644477830786.3125,-105.95703125,-45.8984375,-303.7109375,-79.1015625,43.9453125
1644477830790.2188,-67.3828125,-40.0390625,275.87890625,-55.6640625,8.7890625
1644477830794.125,-46.875,-40.0390625,366.2109375,-40.52734375,-20.5078125
1644477830798.0312,-75.68359375,-43.45703125,-73.2421875,-65.4296875,118.1640625
1644477830801.9375,-98.6328125,-47.8515625,-450.68359375,-77.63671875,116.69921875
1644477830805.8438,-84.47265625,-43.45703125,-183.10546875,-62.5,-36.62109375
1644477830809.75,-41.50390625,-41.9921875,346.6796875,-37.109375,-28.80859375
1644477830813.6562,-28.3203125,-46.38671875,104.98046875,-28.80859375,206.54296875
1644477830817.5625,-60.05859375,-41.015625,-188.96484375,-48.33984375,230.46875
1644477830821.4688,-89.84375,-39.55078125,-70.80078125,-63.4765625,-44.43359375
1644477830825.375,-73.2421875,-42.96875,-126.46484375,-50.78125,-70.80078125
1644477830829.2812,-35.15625,-45.8984375,40.0390625,-33.69140625,46.875
1644477830833.1875,-22.94921875,-42.96875,278.80859375,-32.71484375,80.078125
1644477830837.0938,-48.33984375,-37.109375,83.984375,-41.9921875,89.84375
1644477830841,-69.82421875,-37.109375,-257.32421875,-51.26953125,28.80859375
1644477830844.9062,-62.5,-35.64453125,-665.0390625,-38.57421875,276.3671875
1644477830848.8125,-28.3203125,-27.83203125,-225.5859375,-17.08984375,326.66015625
1644477830852.7188,-7.8125,-28.80859375,440.91796875,-17.08984375,48.828125
1644477830856.625,-28.3203125,-34.1796875,183.10546875,-30.2734375,34.66796875
1644477830860.5312,-64.453125,-38.57421875,-434.08203125,-37.59765625,163.0859375
1644477830864.4375,-69.82421875,-43.45703125,-335.44921875,-41.9921875,-98.14453125
1644477830868.3438,-35.64453125,-42.48046875,175.78125,-26.3671875,-169.43359375
1644477830872.25,-14.16015625,-41.9921875,328.125,-13.18359375,14.16015625
1644477830876.1562,-26.3671875,-37.109375,195.80078125,-11.23046875,26.3671875
1644477830880.0625,-50.78125,-34.1796875,-13.18359375,-29.296875,-94.7265625
1644477830883.9688,-59.08203125,-34.66796875,-199.21875,-49.31640625,-163.57421875
1644477830887.875,-37.109375,-30.2734375,-110.83984375,-33.69140625,-52.24609375
1644477830891.7812,-12.6953125,-30.76171875,70.80078125,-12.20703125,73.73046875
1644477830895.6875,-18.06640625,-30.76171875,32.71484375,-10.25390625,121.09375
1644477830899.5938,-40.52734375,-30.76171875,-176.7578125,-32.2265625,19.04296875
1644477830903.5,-53.22265625,-33.203125,-572.265625,-44.43359375,58.10546875
1644477830907.4062,-30.2734375,-35.15625,-649.90234375,-28.80859375,328.125
1644477830911.3125,7.8125,-28.3203125,201.171875,-13.671875,104.98046875
1644477830915.2188,8.30078125,-18.5546875,444.3359375,-9.27734375,-56.15234375
1644477830919.125,-25.390625,-18.06640625,-59.5703125,-21.97265625,-21.484375
1644477830923.0312,-36.62109375,-18.5546875,-214.35546875,-38.0859375,-119.140625
1644477830926.9375,-10.7421875,-16.6015625,41.015625,-26.85546875,-116.69921875
1644477830930.8438,18.06640625,-21.97265625,297.36328125,-5.37109375,-17.08984375
1644477830934.75,12.6953125,-25.87890625,181.640625,-9.765625,86.42578125
1644477830938.6562,-19.04296875,-30.76171875,-140.13671875,-33.69140625,89.35546875
1644477830942.5625,-53.22265625,-40.52734375,-416.9921875,-47.8515625,-0.48828125
1644477830946.4688,-43.45703125,-46.38671875,-298.33984375,-34.1796875,7.32421875
1644477830950.375,0,-39.0625,-268.5546875,-12.20703125,297.8515625
1644477830954.2812,0.9765625,-23.4375,-55.6640625,-9.27734375,234.86328125
1644477830958.1875,-30.76171875,-22.4609375,186.5234375,-29.78515625,-78.61328125
1644477830962.0938,-56.15234375,-22.94921875,-189.453125,-44.921875,-72.265625
1644477830966,-42.96875,-19.53125,-295.41015625,-41.9921875,16.6015625
1644477830969.9062,-3.41796875,-17.08984375,283.203125,-15.625,-7.8125
1644477830973.8125,7.8125,-20.5078125,449.70703125,-4.8828125,-15.13671875
1644477830977.7188,-20.99609375,-32.71484375,49.8046875,-32.2265625,0.48828125
1644477830981.625,-41.015625,-34.66796875,-237.79296875,-31.73828125,-28.3203125
1644477830985.5312,-42.48046875,-35.15625,-272.4609375,-30.2734375,33.69140625
1644477830989.4375,-22.94921875,-34.1796875,46.875,-29.296875,139.16015625
1644477830993.3438,-29.296875,-30.2734375,38.0859375,-33.203125,218.75
1644477830997.25,-71.77734375,-39.0625,-273.4375,-59.08203125,321.77734375
1644477831001.1562,-101.5625,-40.52734375,-112.79296875,-76.66015625,14.6484375
1644477831005.0625,-104.4921875,-35.15625,-90.33203125,-79.58984375,-125.48828125
1644477831008.9688,-79.58984375,-42.96875,7.8125,-69.3359375,68.84765625
1644477831012.875,-58.59375,-40.0390625,202.63671875,-57.6171875,129.8828125
1644477831016.7812,-79.1015625,-34.66796875,241.2109375,-72.75390625,21.97265625
1644477831020.6875,-115.234375,-45.41015625,-76.66015625,-96.6796875,0.9765625
1644477831024.5938,-111.81640625,-49.8046875,-506.8359375,-93.75,167.96875
1644477831028.5,-61.03515625,-41.015625,-45.41015625,-66.40625,143.06640625
1644477831032.4062,-30.76171875,-42.96875,273.92578125,-48.33984375,83.0078125
1644477831036.3125,-49.31640625,-44.921875,-34.66796875,-53.7109375,174.8046875
1644477831040.2188,-71.2890625,-35.64453125,-581.54296875,-55.6640625,362.3046875
1644477831044.125,-74.70703125,-29.78515625,-429.19921875,-61.03515625,173.828125
1644477831048.0312,-46.875,-28.80859375,177.734375,-55.17578125,-63.4765625
1644477831051.9375,-11.71875,-27.83203125,318.84765625,-27.83203125,5.37109375
1644477831055.8438,-15.625,-24.90234375,211.42578125,-21.484375,23.92578125
1644477831059.75,-37.59765625,-20.99609375,18.5546875,-34.66796875,-55.6640625
1644477831063.6562,-49.8046875,-16.6015625,-196.2890625,-50.78125,-119.62890625
1644477831067.5625,-26.3671875,-20.5078125,-164.55078125,-37.59765625,-6.8359375
1644477831071.4688,6.8359375,-18.5546875,71.2890625,-6.8359375,115.234375
1644477831075.375,-5.37109375,-18.06640625,151.85546875,-20.01953125,10.25390625
1644477831079.2812,-34.66796875,-22.94921875,-104.98046875,-32.71484375,-20.01953125
1644477831083.1875,-51.26953125,-21.97265625,-552.734375,-33.69140625,205.56640625
1644477831087.0938,-30.76171875,-20.5078125,-731.93359375,-20.01953125,433.10546875
1644477831091,4.39453125,-15.625,121.09375,-1.953125,153.80859375
1644477831094.9062,-0.9765625,-15.625,469.23828125,3.41796875,-51.7578125
1644477831098.8125,-32.2265625,-24.90234375,-40.52734375,-15.13671875,31.73828125
1644477831102.7188,-49.8046875,-22.4609375,-255.37109375,-35.15625,24.90234375
1644477831106.625,-38.57421875,-21.484375,-9.765625,-22.94921875,-39.55078125
1644477831110.5312,-5.859375,-33.203125,286.1328125,-4.8828125,-21.484375
1644477831114.4375,0.9765625,-36.1328125,179.6875,-10.7421875,66.40625
1644477831118.3438,-30.76171875,-35.15625,32.71484375,-29.78515625,14.16015625
1644477831122.25,-61.03515625,-29.78515625,-144.04296875,-40.0390625,-71.77734375
1644477831126.1562,-41.50390625,-25.87890625,-302.24609375,-29.78515625,63.96484375
1644477831130.0625,1.953125,-22.4609375,-261.71875,-3.90625,330.078125
1644477831133.9688,0.9765625,-20.99609375,14.16015625,-1.953125,252.9296875
1644477831137.875,-29.296875,-24.4140625,144.53125,-26.3671875,-16.6015625
1644477831141.7812,-57.6171875,-28.80859375,-223.6328125,-38.57421875,-26.3671875
1644477831145.6875,-46.38671875,-28.80859375,-630.37109375,-29.78515625,229.00390625
1644477831149.5938,-6.8359375,-20.99609375,77.63671875,-12.20703125,62.98828125
1644477831153.5,-0.48828125,-22.94921875,533.203125,-3.90625,-62.98828125
1644477831157.4062,-16.11328125,-26.85546875,123.046875,-12.20703125,3.90625
1644477831161.3125,-55.17578125,-30.76171875,-212.890625,-35.15625,-45.41015625
1644477831165.2188,-66.89453125,-35.64453125,-170.8984375,-39.55078125,-99.609375
1644477831169.125,-29.296875,-34.1796875,210.9375,-16.11328125,-60.05859375
1644477831173.0312,-13.671875,-29.296875,139.6484375,-8.30078125,163.57421875
1644477831176.9375,-38.57421875,-29.78515625,-173.33984375,-24.90234375,212.890625
1644477831180.8438,-64.94140625,-33.203125,-148.4375,-45.41015625,-8.7890625
1644477831184.75,-66.89453125,-30.76171875,-124.0234375,-41.50390625,-161.1328125
1644477831188.6562,-26.3671875,-25.87890625,-194.3359375,-12.20703125,142.08984375
1644477831192.5625,-4.8828125,-26.3671875,-81.54296875,-1.46484375,313.96484375
1644477831196.4688,-16.11328125,-19.53125,250.48828125,-12.6953125,-50.78125
1644477831200.375,-29.78515625,-17.08984375,-1.953125,-34.66796875,-149.90234375
1644477831204.2812,-41.9921875,-20.99609375,-361.81640625,-44.43359375,-74.21875
1644477831208.1875,-12.6953125,-18.5546875,29.78515625,-18.06640625,-66.40625
1644477831212.0938,16.6015625,-20.5078125,425.78125,-7.32421875,-79.1015625
1644477831216,-11.23046875,-32.2265625,162.59765625,-19.53125,-95.703125
1644477831219.9062,-58.10546875,-35.15625,-374.51171875,-32.2265625,49.31640625
1644477831223.8125,-63.4765625,-29.78515625,-524.4140625,-36.62109375,4.8828125
1644477831227.7188,-31.25,-26.3671875,0.9765625,-15.13671875,-122.55859375
1644477831231.625,-3.90625,-25.87890625,304.6875,3.41796875,-16.11328125
1644477831235.5312,0.48828125,-25.390625,-208.984375,9.765625,226.5625
1644477831239.4375,-13.671875,-24.90234375,-163.0859375,8.30078125,50.78125
1644477831243.3438,-43.9453125,-27.83203125,-86.9140625,-25.390625,-144.04296875
1644477831247.25,-27.83203125,-28.3203125,-168.9453125,-37.59765625,74.21875
1644477831251.1562,29.296875,-23.92578125,108.3984375,3.90625,143.06640625
1644477831255.0625,32.2265625,-18.5546875,310.05859375,16.11328125,-2.9296875
1644477831258.9688,1.46484375,-20.99609375,92.28515625,1.46484375,-56.640625
1644477831262.875,-10.25390625,-24.4140625,-357.91015625,1.46484375,-51.26953125
1644477831266.7812,0.48828125,-20.5078125,-315.4296875,6.34765625,-8.7890625
1644477831270.6875,33.69140625,-16.11328125,122.55859375,20.99609375,115.72265625
1644477831274.5938,41.015625,-22.94921875,324.21875,18.06640625,84.9609375
1644477831278.5,8.7890625,-28.3203125,-192.87109375,0.48828125,115.72265625
1644477831282.4062,-17.578125,-23.92578125,-713.8671875,-3.90625,235.3515625
1644477831286.3125,0,-22.94921875,-114.74609375,-5.37109375,-10.25390625
1644477831290.2188,36.1328125,-23.92578125,351.5625,10.7421875,-51.26953125
1644477831294.125,33.69140625,-22.94921875,188.4765625,14.16015625,98.6328125
1644477831298.0312,-1.46484375,-21.97265625,67.87109375,-4.8828125,18.06640625
1644477831301.9375,-24.4140625,-20.99609375,-123.046875,-18.5546875,-48.33984375
1644477831305.8438,-14.16015625,-25.390625,-300.29296875,-19.04296875,68.84765625
1644477831309.75,16.11328125,-27.34375,-155.2734375,4.39453125,207.03125
1644477831313.6562,18.5546875,-24.90234375,78.125,9.765625,115.72265625
1644477831317.5625,-14.6484375,-28.80859375,-3.41796875,-15.625,52.734375
1644477831321.4688,-39.55078125,-29.296875,-326.171875,-26.3671875,69.82421875
1644477831325.375,-37.59765625,-30.76171875,-635.7421875,-22.94921875,213.8671875
1644477831329.2812,-6.34765625,-27.83203125,-5.859375,-13.18359375,91.30859375
1644477831333.1875,7.8125,-26.3671875,521.484375,-2.44140625,-124.0234375
1644477831337.0938,-15.13671875,-24.90234375,182.6171875,-11.71875,-64.94140625
1644477831341,-50.78125,-27.83203125,-190.91796875,-40.52734375,-79.58984375
1644477831344.9062,-57.6171875,-31.73828125,-160.15625,-40.52734375,-172.8515625
1644477831348.8125,-20.01953125,-34.1796875,187.98828125,-24.90234375,-134.27734375
1644477831352.7188,-0.48828125,-39.55078125,270.01953125,-7.32421875,-16.11328125
1644477831356.625,-13.671875,-30.76171875,96.19140625,-11.23046875,-22.4609375
1644477831360.5312,-49.31640625,-35.15625,-289.0625,-39.55078125,-41.50390625
1644477831364.4375,-60.546875,-41.9921875,-385.7421875,-43.9453125,-14.16015625
1644477831368.3438,-19.04296875,-39.0625,-224.12109375,-13.18359375,174.31640625
1644477831372.25,4.39453125,-40.0390625,-269.53125,5.859375,426.7578125
1644477831376.1562,-14.16015625,-35.15625,132.8125,-14.16015625,88.37890625
1644477831380.0625,-40.52734375,-32.2265625,105.95703125,-27.83203125,-123.53515625
1644477831383.9688,-55.17578125,-31.25,-264.16015625,-32.2265625,10.7421875
1644477831387.875,-26.85546875,-26.3671875,81.54296875,-14.16015625,-29.296875
1644477831391.7812,9.27734375,-29.78515625,435.05859375,9.765625,-78.61328125
1644477831395.6875,-2.9296875,-38.57421875,236.328125,-4.8828125,-20.99609375
1644477831399.5938,-38.57421875,-35.15625,-171.875,-27.83203125,40.0390625
1644477831403.5,-47.36328125,-31.25,-283.203125,-30.76171875,-51.26953125
1644477831407.4062,-17.08984375,-30.76171875,-93.26171875,-20.99609375,24.4140625
1644477831411.3125,17.578125,-21.484375,113.76953125,1.46484375,209.47265625
1644477831415.2188,14.16015625,-20.5078125,-219.7265625,6.8359375,356.4453125
1644477831419.125,-9.765625,-22.94921875,-234.375,-21.484375,184.5703125
1644477831423.0312,-28.80859375,-19.53125,-161.62109375,-35.15625,-45.8984375
1644477831426.9375,-16.11328125,-20.5078125,-135.25390625,-24.90234375,41.015625
1644477831430.8438,19.53125,-24.90234375,177.24609375,-15.625,69.82421875
1644477831434.75,7.32421875,-24.90234375,386.71875,-8.7890625,-56.15234375
1644477831438.6562,-28.80859375,-23.4375,186.5234375,-22.4609375,-99.609375
1644477831442.5625,-44.43359375,-22.94921875,-255.37109375,-49.8046875,-115.234375
1644477831446.4688,-27.83203125,-21.484375,-113.76953125,-33.203125,-84.9609375
1644477831450.375,6.8359375,-23.92578125,339.35546875,-4.39453125,-53.22265625
1644477831454.2812,12.6953125,-21.97265625,235.83984375,-8.30078125,-41.50390625
1644477831458.1875,-13.18359375,-22.94921875,-296.875,-23.4375,175.78125
1644477831462.0938,-40.52734375,-23.92578125,-695.3125,-42.96875,235.83984375
1644477831466,-27.34375,-20.01953125,-144.04296875,-38.0859375,-106.93359375
1644477831469.9062,4.8828125,-19.04296875,380.37109375,-6.34765625,-138.671875
1644477831473.8125,6.8359375,-15.13671875,228.02734375,0,-29.296875
1644477831477.7188,-15.625,-14.16015625,16.11328125,-20.5078125,-82.51953125
1644477831481.625,-41.9921875,-12.6953125,-223.14453125,-36.1328125,-120.1171875
1644477831485.5312,-29.78515625,-11.23046875,-228.515625,-21.484375,-125.48828125
1644477831489.4375,8.30078125,-19.53125,-69.3359375,7.32421875,75.68359375
1644477831493.3438,7.32421875,-26.85546875,235.83984375,-5.37109375,55.17578125
1644477831497.25,-21.97265625,-25.87890625,248.53515625,-33.69140625,-77.1484375
1644477831501.1562,-55.6640625,-29.78515625,-280.76171875,-59.08203125,16.6015625
1644477831505.0625,-54.19921875,-29.296875,-706.54296875,-47.36328125,305.6640625
1644477831508.9688,-7.8125,-20.01953125,-33.69140625,-19.53125,183.10546875
1644477831512.875,11.23046875,-16.6015625,512.20703125,-7.32421875,-52.24609375
1644477831516.7812,-11.71875,-18.5546875,142.578125,-12.20703125,-28.80859375
1644477831520.6875,-44.43359375,-22.94921875,-225.09765625,-36.1328125,0.48828125
1644477831524.5938,-50.29296875,-20.5078125,-233.88671875,-41.015625,-31.73828125
1644477831528.5,-20.01953125,-22.94921875,158.69140625,-19.04296875,-26.3671875
1644477831532.4062,8.30078125,-30.2734375,315.4296875,-2.44140625,65.4296875
1644477831536.3125,-8.7890625,-31.25,97.16796875,-13.18359375,94.7265625
1644477831540.2188,-43.45703125,-29.78515625,-227.5390625,-33.203125,66.40625
1644477831544.125,-52.734375,-32.2265625,-275.390625,-40.52734375,-85.44921875
1644477831548.0312,-12.6953125,-33.203125,-175.29296875,-17.08984375,151.3671875
1644477831551.9375,19.53125,-31.25,-292.48046875,1.46484375,571.77734375
1644477831555.8438,-5.859375,-34.1796875,99.609375,-12.20703125,187.98828125
1644477831559.75,-42.96875,-40.52734375,124.0234375,-31.73828125,-128.41796875
1644477831563.6562,-58.59375,-41.50390625,-318.359375,-41.9921875,-39.55078125
1644477831567.5625,-30.76171875,-40.52734375,4.8828125,-28.3203125,-26.85546875
1644477831571.4688,1.953125,-39.55078125,471.6796875,-0.9765625,-73.73046875
1644477831575.375,-2.9296875,-30.2734375,291.015625,1.953125,-47.8515625
1644477831579.2812,-35.64453125,-30.2734375,-154.78515625,-17.08984375,-29.78515625
1644477831583.1875,-63.96484375,-36.62109375,-261.71875,-30.76171875,-114.2578125
1644477831587.0938,-36.1328125,-33.203125,22.4609375,-20.01953125,-173.828125
1644477831591,8.30078125,-34.66796875,238.76953125,-4.8828125,-105.95703125
1644477831594.9062,8.30078125,-37.59765625,-12.20703125,-0.48828125,54.19921875
1644477831598.8125,-29.296875,-38.0859375,-216.796875,-20.99609375,62.01171875
1644477831602.7188,-57.6171875,-33.69140625,-357.91015625,-40.0390625,-53.7109375
1644477831606.625,-37.59765625,-27.34375,-245.60546875,-31.73828125,-55.17578125
1644477831610.5312,8.30078125,-25.87890625,-183.59375,-0.9765625,308.59375
1644477831614.4375,13.18359375,-18.5546875,61.5234375,0.9765625,211.9140625
1644477831618.3438,-21.97265625,-21.484375,258.30078125,-24.4140625,-110.83984375
1644477831622.25,-44.921875,-26.3671875,-160.15625,-42.96875,-121.58203125
1644477831626.1562,-26.85546875,-24.4140625,-169.43359375,-32.2265625,-122.0703125
1644477831630.0625,6.34765625,-26.85546875,319.3359375,-9.27734375,-100.09765625
1644477831633.9688,9.765625,-26.3671875,398.92578125,-4.8828125,-41.9921875
1644477831637.875,-17.08984375,-24.4140625,-9.765625,-19.53125,-31.25
1644477831641.7812,-53.22265625,-27.34375,-429.6875,-33.69140625,27.83203125
1644477831645.6875,-41.015625,-19.53125,-354.00390625,-25.87890625,40.52734375
1644477831649.5938,-0.48828125,-18.5546875,231.4453125,-7.8125,-51.26953125
1644477831653.5,5.37109375,-25.390625,92.28515625,-2.9296875,111.81640625
1644477831657.4062,-17.08984375,-21.97265625,-522.94921875,-13.18359375,370.60546875
1644477831661.3125,-42.96875,-23.92578125,-228.515625,-40.52734375,29.78515625
1644477831665.2188,-43.9453125,-29.78515625,-36.1328125,-54.19921875,-152.34375
1644477831669.125,-7.32421875,-31.73828125,24.4140625,-29.296875,39.55078125
1644477831673.0312,25.390625,-29.78515625,319.82421875,11.71875,15.625
1644477831676.9375,-7.32421875,-35.15625,259.765625,-0.48828125,-110.83984375
1644477831680.8438,-68.359375,-33.203125,-125.48828125,-53.22265625,-142.08984375
1644477831684.75,-83.0078125,-29.78515625,-314.94140625,-59.08203125,-53.22265625
1644477831688.6562,-50.78125,-28.80859375,-36.62109375,-32.71484375,49.31640625
1644477831692.5625,-41.9921875,-28.80859375,186.03515625,-40.52734375,92.28515625
1644477831696.4688,-76.66015625,-41.9921875,42.96875,-62.01171875,51.7578125
1644477831700.375,-105.95703125,-41.015625,-555.6640625,-77.1484375,225.5859375
1644477831704.2812,-112.3046875,-32.71484375,-444.3359375,-103.02734375,65.4296875
1644477831708.1875,-85.9375,-40.52734375,227.05078125,-90.33203125,-169.921875
1644477831712.0938,-57.6171875,-49.31640625,332.51953125,-62.01171875,-18.06640625
1644477831716,-69.82421875,-40.0390625,90.33203125,-57.6171875,88.8671875
1644477831719.9062,-92.7734375,-36.62109375,-29.296875,-68.84765625,-16.11328125
1644477831723.8125,-86.42578125,-36.1328125,-127.44140625,-67.3828125,-117.67578125
1644477831727.7188,-50.78125,-23.4375,-138.18359375,-38.0859375,-34.1796875
1644477831731.625,-20.5078125,-17.578125,95.703125,-19.04296875,87.40234375
1644477831735.5312,-24.90234375,-20.99609375,105.46875,-24.4140625,89.35546875
1644477831739.4375,-54.19921875,-20.01953125,-116.69921875,-37.59765625,74.21875
1644477831743.3438,-68.359375,-22.94921875,-487.3046875,-43.45703125,214.35546875
1644477831747.25,-38.0859375,-25.390625,-467.7734375,-36.62109375,287.59765625
1644477831751.1562,-0.48828125,-15.625,328.61328125,-18.5546875,68.359375
1644477831755.0625,-1.953125,-17.578125,434.08203125,-9.27734375,15.625
1644477831758.9688,-36.1328125,-23.4375,-46.38671875,-32.71484375,61.03515625
1644477831762.875,-54.19921875,-22.94921875,-200.68359375,-41.015625,-25.390625
1644477831766.7812,-21.484375,-16.6015625,57.12890625,-17.578125,-57.12890625
1644477831770.6875,8.30078125,-17.08984375,251.46484375,-2.9296875,69.3359375
1644477831774.5938,9.27734375,-17.578125,72.265625,-3.90625,165.52734375
1644477831778.5,-17.08984375,-20.5078125,-25.87890625,-19.53125,70.80078125
1644477831782.4062,-43.9453125,-20.99609375,-272.94921875,-36.1328125,44.43359375
1644477831786.3125,-28.3203125,-19.04296875,-337.40234375,-28.3203125,78.125
1644477831790.2188,10.25390625,-18.06640625,-302.24609375,-1.46484375,356.4453125
1644477831794.125,9.765625,-13.18359375,16.6015625,-5.37109375,299.8046875
1644477831798.0312,-22.4609375,-16.11328125,251.953125,-22.4609375,-37.109375
1644477831801.9375,-46.875,-13.18359375,-124.0234375,-30.2734375,-62.5
1644477831805.8438,-32.71484375,-13.671875,-162.109375,-28.80859375,-48.33984375
1644477831809.75,-10.7421875,-25.87890625,275.87890625,-24.90234375,-31.25
1644477831813.6562,-12.6953125,-29.78515625,398.92578125,-17.08984375,0.48828125
1644477831817.5625,-35.64453125,-31.25,20.01953125,-27.34375,0
1644477831821.4688,-67.87109375,-27.34375,-270.5078125,-57.6171875,-39.55078125
1644477831825.375,-63.96484375,-26.3671875,-220.703125,-50.78125,-64.94140625
1644477831829.2812,-18.06640625,-30.76171875,38.0859375,-26.3671875,-20.99609375
1644477831833.1875,-8.7890625,-30.2734375,-12.20703125,-17.578125,214.35546875
1644477831837.0938,-33.69140625,-24.90234375,-485.83984375,-20.5078125,464.84375
1644477831841,-52.24609375,-18.06640625,-226.5625,-27.34375,33.203125
1644477831844.9062,-49.8046875,-29.296875,-36.1328125,-30.2734375,-200.1953125
1644477831848.8125,-17.578125,-35.15625,-72.265625,-10.25390625,-29.296875
1644477831852.7188,5.37109375,-29.296875,262.6953125,5.37109375,-48.828125
1644477831856.625,-10.7421875,-24.90234375,286.1328125,-3.41796875,-118.1640625
1644477831860.5312,-46.875,-24.90234375,-126.46484375,-23.4375,-131.8359375
1644477831864.4375,-62.01171875,-35.64453125,-382.32421875,-34.66796875,-73.2421875
1644477831868.3438,-24.90234375,-35.64453125,-20.5078125,-21.97265625,-55.17578125
1644477831872.25,9.27734375,-27.83203125,356.4453125,-6.8359375,-45.41015625
1644477831876.1562,-5.859375,-29.296875,59.5703125,-4.8828125,77.1484375
1644477831880.0625,-38.57421875,-32.71484375,-643.5546875,-11.23046875,267.08984375
1644477831883.9688,-51.26953125,-31.73828125,-489.2578125,-24.90234375,42.48046875
1644477831887.875,-15.625,-25.87890625,125,-9.27734375,-188.96484375
1644477831891.7812,28.3203125,-20.5078125,166.50390625,28.3203125,0
1644477831895.6875,8.7890625,-22.94921875,-126.953125,18.5546875,160.15625
1644477831899.5938,-41.9921875,-30.2734375,-59.5703125,-19.53125,-78.125
1644477831903.5,-56.640625,-26.85546875,-114.74609375,-27.83203125,-224.609375
1644477831907.4062,-26.85546875,-24.4140625,-122.0703125,-11.23046875,-139.6484375
1644477831911.3125,1.46484375,-26.3671875,218.75,5.37109375,-56.15234375
1644477831915.2188,-4.39453125,-22.94921875,286.62109375,7.32421875,-76.171875
1644477831919.125,-20.99609375,-21.484375,26.85546875,2.44140625,-148.4375
1644477831923.0312,-43.45703125,-29.78515625,-442.3828125,-15.625,-29.78515625
1644477831926.9375,-20.5078125,-32.2265625,-419.43359375,-19.04296875,80.56640625
1644477831930.8438,23.4375,-26.85546875,241.2109375,2.44140625,-48.33984375
1644477831934.75,23.4375,-25.390625,376.46484375,4.8828125,-70.80078125
1644477831938.6562,-4.8828125,-26.85546875,-170.8984375,-12.20703125,99.609375
1644477831942.5625,-36.62109375,-27.34375,-457.03125,-30.76171875,74.70703125
1644477831946.4688,-30.76171875,-26.85546875,-132.32421875,-16.11328125,-63.96484375
1644477831950.375,1.46484375,-28.80859375,149.4140625,11.71875,39.0625
1644477831954.2812,-3.41796875,-37.109375,9.27734375,-0.48828125,175.29296875
1644477831958.1875,-41.50390625,-37.59765625,-5.859375,-24.90234375,69.3359375
1644477831962.0938,-58.59375,-30.2734375,-68.359375,-31.73828125,-73.73046875
1644477831966,-32.71484375,-20.01953125,-168.45703125,-23.92578125,-11.71875
1644477831969.9062,-5.859375,-19.53125,13.671875,-2.9296875,267.578125
1644477831973.8125,-11.23046875,-30.76171875,139.16015625,0,290.52734375
1644477831977.7188,-35.64453125,-33.203125,164.55078125,-24.4140625,29.296875
1644477831981.625,-64.94140625,-38.0859375,-189.453125,-43.9453125,-27.34375
1644477831985.5312,-65.91796875,-40.52734375,-684.08203125,-35.64453125,217.28515625
1644477831989.4375,-31.25,-34.1796875,1.953125,-19.53125,90.8203125
1644477831993.3438,-17.578125,-35.64453125,502.44140625,-19.53125,-89.35546875
1644477831997.25,-37.109375,-39.0625,103.02734375,-29.296875,-35.64453125
1644477832001.1562,-64.94140625,-34.1796875,-203.61328125,-43.9453125,-64.453125
1644477832005.0625,-60.546875,-30.2734375,-203.61328125,-39.0625,-124.0234375
1644477832008.9688,-15.625,-33.69140625,70.80078125,-16.6015625,-61.03515625
1644477832012.875,4.8828125,-35.15625,176.26953125,-1.953125,48.828125
1644477832016.7812,-14.16015625,-37.59765625,-69.3359375,-9.765625,133.30078125
1644477832020.6875,-43.9453125,-31.73828125,-263.671875,-31.73828125,101.5625
1644477832024.5938,-48.33984375,-28.80859375,-124.0234375,-42.48046875,-24.90234375
1644477832028.5,-12.6953125,-29.296875,-38.0859375,-19.04296875,102.05078125
1644477832032.4062,2.44140625,-33.203125,-43.45703125,0,269.53125
1644477832036.3125,-11.23046875,-33.69140625,299.8046875,-14.6484375,14.16015625
1644477832040.2188,-39.0625,-32.71484375,85.9375,-30.76171875,-110.83984375
1644477832044.125,-51.26953125,-30.76171875,-340.8203125,-30.76171875,-53.22265625
1644477832048.0312,-15.625,-23.4375,63.96484375,-11.23046875,-16.11328125
1644477832051.9375,12.6953125,-25.87890625,493.65234375,7.8125,4.39453125
1644477832055.8438,-4.39453125,-34.1796875,288.57421875,-2.9296875,3.90625
1644477832059.75,-29.296875,-34.66796875,-119.140625,-16.11328125,52.24609375
1644477832063.6562,-35.15625,-28.80859375,-328.61328125,-16.6015625,97.65625
1644477832067.5625,-7.8125,-23.4375,-114.74609375,-4.39453125,117.1875
1644477832071.4688,20.01953125,-23.92578125,191.40625,14.16015625,147.94921875
1644477832075.375,8.7890625,-29.296875,-222.16796875,13.18359375,382.32421875
1644477832079.2812,-26.3671875,-32.71484375,-353.515625,-11.23046875,290.52734375
1644477832083.1875,-44.921875,-28.3203125,-72.75390625,-24.90234375,-82.51953125
1644477832087.0938,-16.6015625,-26.3671875,7.32421875,-5.37109375,-127.44140625
1644477832091,17.08984375,-20.99609375,333.984375,17.08984375,5.37109375
1644477832094.9062,11.71875,-18.5546875,453.125,8.30078125,10.25390625
1644477832098.8125,-24.4140625,-25.87890625,154.296875,-11.71875,-36.1328125
1644477832102.7188,-47.36328125,-28.80859375,-283.69140625,-24.90234375,-29.296875
1644477832106.625,-28.80859375,-24.4140625,-177.734375,-18.5546875,9.27734375
1644477832110.5312,12.6953125,-15.13671875,191.40625,4.39453125,165.0390625
1644477832114.4375,14.6484375,-16.11328125,226.07421875,5.859375,172.36328125
1644477832118.3438,-20.99609375,-25.390625,-203.125,-8.7890625,168.9453125
1644477832122.25,-50.29296875,-27.83203125,-714.84375,-21.484375,272.94921875
1644477832126.1562,-32.2265625,-21.484375,-280.2734375,-23.4375,96.19140625
1644477832130.0625,9.765625,-21.484375,377.9296875,-9.765625,15.13671875
1644477832133.9688,10.25390625,-25.390625,243.1640625,-10.25390625,187.98828125
1644477832137.875,-22.4609375,-18.06640625,51.26953125,-24.4140625,99.12109375
1644477832141.7812,-53.7109375,-20.5078125,-24.4140625,-31.73828125,-80.56640625
1644477832145.6875,-34.66796875,-23.92578125,-113.28125,-17.578125,-84.47265625
1644477832149.5938,5.859375,-24.4140625,89.35546875,2.44140625,-20.99609375
1644477832153.5,4.39453125,-27.34375,305.17578125,0,30.2734375
1644477832157.4062,-23.92578125,-34.66796875,72.265625,-18.06640625,43.9453125
1644477832161.3125,-55.6640625,-36.1328125,-383.7890625,-35.64453125,86.42578125
1644477832165.2188,-51.7578125,-36.62109375,-696.77734375,-34.1796875,311.03515625
1644477832169.125,-14.6484375,-36.1328125,-50.78125,-18.06640625,175.78125
1644477832173.0312,6.8359375,-30.2734375,535.64453125,-5.859375,-48.33984375
1644477832176.9375,-14.6484375,-31.73828125,238.76953125,-13.18359375,-22.94921875
1644477832180.8438,-54.6875,-35.15625,-163.57421875,-38.57421875,-26.3671875
1644477832184.75,-62.98828125,-37.59765625,-279.296875,-46.875,-63.4765625
1644477832188.6562,-20.5078125,-37.109375,149.90234375,-14.16015625,-94.23828125
1644477832192.5625,6.8359375,-35.15625,309.08203125,-0.48828125,32.71484375
1644477832196.4688,-9.765625,-31.73828125,31.25,-20.5078125,69.3359375
1644477832200.375,-47.8515625,-34.66796875,-110.83984375,-39.0625,-41.015625
1644477832204.2812,-54.19921875,-32.71484375,-280.2734375,-38.57421875,-30.2734375
1644477832208.1875,-11.23046875,-24.90234375,-275.390625,-14.16015625,108.88671875
1644477832212.0938,11.71875,-24.4140625,-121.09375,12.20703125,312.5
1644477832216,-6.8359375,-26.85546875,287.109375,-0.9765625,105.46875
1644477832219.9062,-38.57421875,-34.66796875,130.37109375,-32.71484375,-36.62109375
1644477832223.8125,-52.734375,-35.15625,-289.0625,-47.8515625,25.87890625
1644477832227.7188,-11.71875,-22.4609375,20.5078125,-25.87890625,20.99609375
1644477832231.625,17.578125,-22.4609375,441.40625,-8.7890625,25.390625
1644477832235.5312,0.48828125,-25.87890625,307.6171875,-17.578125,47.36328125
1644477832239.4375,-26.85546875,-24.4140625,-207.51953125,-31.25,52.734375
1644477832243.3438,-40.52734375,-24.90234375,-428.7109375,-36.1328125,55.6640625
1644477832247.25,-19.53125,-23.92578125,-75.1953125,-26.3671875,7.32421875
1644477832251.1562,6.34765625,-26.3671875,205.078125,-10.7421875,85.44921875
1644477832255.0625,-3.90625,-24.90234375,-271.97265625,1.46484375,473.6328125
1644477832258.9688,-35.64453125,-23.92578125,-473.14453125,-14.16015625,395.99609375
1644477832262.875,-62.01171875,-32.2265625,-113.76953125,-31.73828125,-52.24609375
1644477832266.7812,-42.96875,-26.85546875,15.625,-22.4609375,-54.19921875
1644477832270.6875,4.8828125,-16.6015625,294.921875,3.41796875,67.87109375
1644477832274.5938,4.8828125,-22.4609375,426.26953125,2.9296875,32.2265625
1644477832278.5,-37.109375,-31.25,127.9296875,-19.53125,-45.8984375
1644477832282.4062,-65.4296875,-38.0859375,-258.7890625,-35.64453125,-32.2265625
1644477832286.3125,-51.26953125,-38.0859375,-182.6171875,-29.78515625,13.671875
1644477832290.2188,-11.71875,-31.73828125,299.31640625,-5.37109375,26.85546875
1644477832294.125,0.48828125,-28.3203125,366.2109375,5.37109375,8.7890625
1644477832298.0312,-21.97265625,-22.4609375,-159.66796875,-8.30078125,142.08984375
1644477832301.9375,-51.7578125,-19.04296875,-514.6484375,-24.90234375,159.66796875
1644477832305.8438,-44.43359375,-18.06640625,-279.78515625,-25.390625,66.89453125
1644477832309.75,3.90625,-15.13671875,281.73828125,-6.8359375,-37.59765625
1644477832313.6562,17.08984375,-18.5546875,142.08984375,2.44140625,105.95703125
1644477832317.5625,-22.94921875,-22.94921875,-338.8671875,-11.71875,215.33203125
1644477832321.4688,-57.6171875,-24.4140625,-122.55859375,-28.80859375,-105.95703125
1644477832325.375,-44.43359375,-27.34375,-0.9765625,-30.2734375,-123.046875
1644477832329.2812,-3.41796875,-28.3203125,152.83203125,-23.92578125,35.64453125
1644477832333.1875,11.71875,-17.08984375,388.671875,-2.44140625,3.41796875
1644477832337.0938,-8.30078125,-12.6953125,252.44140625,-6.8359375,-82.51953125
1644477832341,-42.48046875,-19.53125,-159.66796875,-37.59765625,-105.46875
1644477832344.9062,-46.875,-16.11328125,-497.0703125,-34.66796875,24.4140625
1644477832348.8125,-9.27734375,-11.23046875,-122.0703125,-11.23046875,56.640625
1644477832352.7188,11.71875,-16.11328125,391.6015625,-1.953125,-60.546875
1644477832356.625,-12.6953125,-28.80859375,193.84765625,-10.7421875,-16.11328125
1644477832360.5312,-42.48046875,-33.203125,-604.98046875,-18.06640625,342.7734375
1644477832364.4375,-52.734375,-30.76171875,-520.5078125,-30.2734375,145.99609375
1644477832368.3438,-26.3671875,-32.71484375,176.26953125,-23.4375,-132.32421875
1644477832372.25,-4.39453125,-32.71484375,325.1953125,-8.7890625,-107.91015625
1644477832376.1562,-18.5546875,-30.2734375,163.0859375,-15.13671875,-104.00390625
1644477832380.0625,-38.0859375,-19.04296875,7.8125,-33.69140625,-137.6953125
1644477832383.9688,-49.31640625,-12.20703125,-157.71484375,-41.50390625,-218.26171875
1644477832387.875,-14.6484375,-12.6953125,-56.640625,-10.25390625,-105.95703125
1644477832391.7812,20.01953125,-12.20703125,133.7890625,-2.9296875,87.890625
1644477832395.6875,3.90625,-19.04296875,60.546875,-21.97265625,87.40234375
1644477832399.5938,-35.64453125,-23.4375,-23.4375,-36.1328125,-119.140625
1644477832403.5,-56.640625,-23.4375,-420.8984375,-36.1328125,-22.4609375
1644477832407.4062,-32.71484375,-23.92578125,-450.1953125,-20.99609375,214.84375
1644477832411.3125,3.41796875,-22.4609375,392.578125,-7.8125,-7.8125
1644477832415.2188,2.44140625,-23.4375,416.015625,-7.8125,-67.3828125
1644477832419.125,-34.1796875,-33.69140625,-186.5234375,-25.87890625,101.07421875
1644477832423.0312,-61.03515625,-35.15625,-244.140625,-42.48046875,-12.20703125
1644477832426.9375,-34.1796875,-23.4375,124.51171875,-21.484375,-106.4453125
1644477832430.8438,7.32421875,-20.99609375,366.69921875,2.44140625,8.7890625
1644477832434.75,8.30078125,-18.06640625,157.71484375,5.37109375,123.53515625
1644477832438.6562,-21.97265625,-19.53125,-111.81640625,-18.06640625,71.2890625
1644477832442.5625,-53.7109375,-25.87890625,-326.66015625,-38.57421875,-35.64453125
1644477832446.4688,-36.1328125,-26.3671875,-230.46875,-21.97265625,-6.8359375
1644477832450.375,4.8828125,-32.71484375,-169.921875,4.8828125,296.38671875
1644477832454.2812,7.32421875,-28.80859375,99.609375,6.8359375,199.21875
1644477832458.1875,-22.94921875,-25.87890625,255.859375,-11.71875,-81.54296875
1644477832462.0938,-54.19921875,-38.0859375,-176.7578125,-32.71484375,-99.12109375
1644477832466,-41.9921875,-40.0390625,-195.80078125,-21.484375,-78.61328125
1644477832469.9062,3.41796875,-31.73828125,303.7109375,5.859375,-56.640625
1644477832473.8125,1.953125,-41.015625,413.0859375,-6.8359375,-17.578125
1644477832477.7188,-20.99609375,-39.0625,-45.41015625,-11.71875,92.28515625
1644477832481.625,-38.57421875,-34.1796875,-376.953125,-15.13671875,71.77734375
1644477832485.5312,-35.64453125,-42.96875,-269.53125,-26.3671875,18.5546875
1644477832489.4375,-1.953125,-42.48046875,127.9296875,-11.71875,65.4296875
1644477832493.3438,14.16015625,-40.0390625,114.74609375,6.34765625,235.83984375
1644477832497.25,-16.6015625,-40.0390625,-263.18359375,-12.6953125,333.49609375
1644477832501.1562,-51.7578125,-36.62109375,-70.3125,-33.203125,30.76171875
1644477832505.0625,-40.52734375,-33.69140625,10.25390625,-29.296875,-102.5390625
1644477832508.9688,-1.953125,-35.64453125,72.265625,-11.23046875,11.71875
1644477832512.875,11.71875,-36.1328125,337.890625,-1.46484375,35.15625
1644477832516.7812,-9.765625,-37.109375,315.91796875,-19.53125,-35.15625
1644477832520.6875,-37.59765625,-32.71484375,-98.6328125,-27.34375,-61.03515625
1644477832524.5938,-40.0390625,-20.5078125,-357.91015625,-12.6953125,-34.66796875
1644477832528.5,-3.90625,-16.6015625,32.71484375,-0.9765625,-23.92578125
1644477832532.4062,20.5078125,-19.53125,243.65234375,7.8125,89.84375
1644477832536.3125,-2.44140625,-21.97265625,47.8515625,-2.44140625,144.04296875
1644477832540.2188,-45.8984375,-27.83203125,-648.92578125,-24.90234375,332.51953125
1644477832544.125,-59.5703125,-24.90234375,-719.23828125,-31.25,229.00390625
1644477832548.0312,-23.4375,-18.06640625,173.33984375,-12.20703125,-83.0078125
1644477832551.9375,17.08984375,-20.99609375,434.08203125,2.9296875,-16.6015625
1644477832555.8438,10.7421875,-20.01953125,247.0703125,-8.7890625,15.625
1644477832559.75,-37.59765625,-25.87890625,50.78125,-31.25,-89.35546875
1644477832563.6562,-58.59375,-27.34375,-170.41015625,-35.15625,-180.6640625
1644477832567.5625,-33.203125,-26.85546875,-127.44140625,-24.90234375,-129.39453125
1644477832571.4688,-13.671875,-30.76171875,175.78125,-14.16015625,-25.87890625
1644477832575.375,-14.16015625,-27.83203125,231.93359375,-8.30078125,-42.48046875
1644477832579.2812,-35.64453125,-27.34375,-106.93359375,-18.06640625,-89.35546875
1644477832583.1875,-59.5703125,-32.71484375,-604.98046875,-27.34375,64.453125
1644477832587.0938,-33.203125,-29.296875,-615.234375,-19.04296875,261.23046875
1644477832591,5.37109375,-24.90234375,232.421875,-10.7421875,65.91796875
1644477832594.9062,5.37109375,-29.296875,329.58984375,-9.765625,12.20703125
1644477832598.8125,-28.3203125,-31.25,-174.31640625,-22.4609375,99.609375
1644477832602.7188,-48.33984375,-24.90234375,-279.78515625,-27.83203125,-49.31640625
1644477832606.625,-22.94921875,-23.92578125,81.54296875,-4.8828125,-132.32421875
1644477832610.5312,11.71875,-30.2734375,375,16.11328125,-6.8359375
1644477832614.4375,-3.90625,-39.55078125,224.609375,15.625,49.31640625
1644477832618.3438,-57.6171875,-43.9453125,44.921875,-15.13671875,-45.41015625
1644477832622.25,-86.42578125,-43.45703125,-115.234375,-32.71484375,-121.58203125
1644477832626.1562,-62.98828125,-48.828125,-259.765625,-17.08984375,31.25
1644477832630.0625,-32.71484375,-58.59375,-285.15625,-26.3671875,429.6875
1644477832633.9688,-36.1328125,-58.59375,104.00390625,-58.59375,230.95703125
1644477832637.875,-58.10546875,-63.4765625,248.046875,-65.4296875,-104.4921875
1644477832641.7812,-90.33203125,-77.1484375,-206.0546875,-77.1484375,-79.1015625
1644477832645.6875,-83.0078125,-74.21875,-246.09375,-64.453125,-18.5546875
1644477832649.5938,-39.0625,-70.3125,231.4453125,-40.52734375,12.6953125
1644477832653.5,-33.203125,-74.70703125,275.87890625,-42.48046875,9.765625
1644477832657.4062,-41.50390625,-73.73046875,-34.1796875,-39.0625,62.5
1644477832661.3125,-60.05859375,-70.3125,-323.73046875,-46.38671875,46.38671875
1644477832665.2188,-63.4765625,-67.87109375,-168.45703125,-41.50390625,-88.8671875
1644477832669.125,-22.4609375,-65.91796875,208.49609375,-10.7421875,-76.66015625
1644477832673.0312,-10.7421875,-67.3828125,118.1640625,0.48828125,93.75
1644477832676.9375,-40.52734375,-69.82421875,-135.7421875,-7.8125,161.62109375
1644477832680.8438,-78.61328125,-65.4296875,-83.49609375,-17.578125,-6.8359375
1644477832684.75,-77.1484375,-58.59375,-56.15234375,-15.13671875,-111.81640625
1644477832688.6562,-37.59765625,-57.12890625,-62.01171875,6.34765625,116.69921875
1644477832692.5625,-8.7890625,-53.22265625,183.10546875,25.87890625,214.35546875
1644477832696.4688,-14.6484375,-48.828125,354.00390625,14.6484375,20.01953125
1644477832700.375,-48.33984375,-55.17578125,20.99609375,-8.7890625,-7.8125
1644477832704.2812,-62.98828125,-59.08203125,-257.8125,-11.23046875,47.8515625
1644477832708.1875,-17.578125,-46.38671875,41.9921875,12.20703125,82.51953125
1644477832712.0938,8.7890625,-44.921875,283.203125,24.4140625,92.7734375
1644477832716,-4.39453125,-54.19921875,213.8671875,7.32421875,81.0546875
1644477832719.9062,-25.87890625,-54.6875,-433.10546875,-8.7890625,309.5703125
1644477832723.8125,-47.36328125,-50.29296875,-592.28515625,-12.20703125,189.453125
1644477832727.7188,-20.01953125,-50.78125,130.37109375,1.46484375,-60.05859375
1644477832731.625,20.01953125,-45.41015625,393.06640625,41.50390625,33.203125
1644477832735.5312,9.765625,-36.62109375,-23.4375,39.55078125,248.53515625
1644477832739.4375,-24.4140625,-33.203125,-16.11328125,2.44140625,71.2890625
1644477832743.3438,-47.36328125,-36.62109375,-45.8984375,-13.671875,-125
1644477832747.25,-25.87890625,-37.109375,-84.9609375,-13.18359375,-85.44921875
1644477832751.1562,-0.48828125,-35.64453125,261.71875,-0.48828125,1.46484375
1644477832755.0625,-8.30078125,-34.66796875,375,-5.859375,24.90234375
1644477832758.9688,-35.15625,-37.59765625,98.6328125,-28.3203125,-60.05859375
1644477832762.875,-51.7578125,-35.64453125,-320.80078125,-18.5546875,-47.36328125
1644477832766.7812,-12.20703125,-31.25,-219.7265625,6.34765625,68.359375
1644477832770.6875,26.85546875,-29.296875,142.08984375,15.625,149.4140625
1644477832774.5938,20.99609375,-26.85546875,216.30859375,7.32421875,118.1640625
1644477832778.5,-8.30078125,-29.78515625,-128.41796875,-3.41796875,142.08984375
1644477832782.4062,-48.828125,-36.62109375,-750,-16.6015625,332.51953125
1644477832786.3125,-42.48046875,-34.66796875,-240.72265625,-23.4375,88.37890625
1644477832790.2188,8.30078125,-28.80859375,392.08984375,-9.765625,-17.578125
1644477832794.125,19.04296875,-26.85546875,321.2890625,-2.9296875,89.35546875
1644477832798.0312,-8.30078125,-26.3671875,255.859375,-19.53125,-9.765625
1644477832801.9375,-40.0390625,-25.87890625,13.671875,-32.2265625,-126.46484375
1644477832805.8438,-27.34375,-23.4375,-83.49609375,-22.94921875,-121.58203125
1644477832809.75,15.625,-23.92578125,187.01171875,0.48828125,25.87890625
1644477832813.6562,14.6484375,-23.92578125,252.9296875,4.8828125,154.296875
1644477832817.5625,-12.6953125,-21.97265625,56.640625,-20.01953125,145.01953125
1644477832821.4688,-35.64453125,-18.06640625,-209.47265625,-30.76171875,39.55078125
1644477832825.375,-27.34375,-18.06640625,-596.6796875,-10.7421875,267.08984375
1644477832829.2812,17.08984375,-16.6015625,-81.54296875,1.46484375,274.90234375
1644477832833.1875,26.85546875,-23.4375,543.9453125,-2.9296875,-55.6640625
1644477832837.0938,-11.23046875,-33.203125,197.265625,-11.23046875,-68.359375
1644477832841,-47.36328125,-34.66796875,-259.765625,-28.3203125,32.71484375
1644477832844.9062,-43.45703125,-27.34375,-109.375,-27.34375,-64.94140625
1644477832848.8125,-2.9296875,-27.34375,307.12890625,0.48828125,-67.3828125
1644477832852.7188,19.53125,-31.73828125,373.046875,10.25390625,68.359375
1644477832856.625,-11.23046875,-30.76171875,159.66796875,-0.48828125,23.4375
1644477832860.5312,-49.31640625,-29.296875,-223.14453125,-20.5078125,-18.06640625
1644477832864.4375,-49.8046875,-27.83203125,-359.375,-28.80859375,-17.578125
1644477832868.3438,-2.9296875,-22.4609375,-172.8515625,-8.30078125,93.26171875
1644477832872.25,33.203125,-14.6484375,-108.3984375,1.46484375,262.20703125
1644477832876.1562,20.5078125,-10.7421875,253.41796875,-11.23046875,13.671875
1644477832880.0625,-17.08984375,-13.671875,134.765625,-27.83203125,-151.85546875
1644477832883.9688,-34.66796875,-24.90234375,-319.3359375,-42.96875,-56.640625
1644477832887.875,-5.37109375,-23.92578125,-127.9296875,-23.92578125,-48.33984375
1644477832891.7812,26.3671875,-17.08984375,385.25390625,1.46484375,-105.46875
1644477832895.6875,18.06640625,-18.06640625,304.6875,0.9765625,-52.24609375
1644477832899.5938,-19.04296875,-17.578125,-297.8515625,-20.01953125,64.453125
1644477832903.5,-44.921875,-30.2734375,-368.65234375,-20.99609375,-58.10546875
1644477832907.4062,-2.9296875,-38.57421875,-35.15625,6.8359375,-85.44921875
1644477832911.3125,44.43359375,-21.484375,184.08203125,22.4609375,141.11328125
1644477832915.2188,11.23046875,-11.71875,-142.578125,0,359.375
1644477832919.125,-42.96875,-10.25390625,-189.453125,-46.875,146.484375
1644477832923.0312,-54.19921875,-3.41796875,-47.8515625,-57.12890625,-160.64453125
1644477832926.9375,-29.78515625,7.32421875,30.76171875,-32.71484375,-78.125
1644477832930.8438,4.8828125,16.11328125,340.8203125,-25.390625,20.01953125
1644477832934.75,5.859375,12.6953125,416.50390625,-40.0390625,16.11328125
1644477832938.6562,-29.78515625,10.7421875,173.33984375,-55.6640625,-76.171875
1644477832942.5625,-63.96484375,10.7421875,-322.265625,-72.265625,-72.265625
1644477832946.4688,-42.48046875,10.25390625,-320.3125,-64.94140625,85.44921875
1644477832950.375,3.90625,13.18359375,261.23046875,-34.66796875,12.20703125
1644477832954.2812,-4.39453125,14.16015625,292.96875,-37.109375,-21.484375
1644477832958.1875,-24.90234375,18.5546875,-211.9140625,-46.38671875,172.36328125
1644477832962.0938,-44.921875,21.97265625,-847.16796875,-46.875,352.05078125
1644477832966,-33.203125,19.53125,-258.7890625,-44.921875,98.6328125
1644477832969.9062,11.71875,13.18359375,450.68359375,-20.99609375,-49.8046875
1644477832973.8125,21.97265625,11.71875,281.25,-7.32421875,87.40234375
1644477832977.7188,-13.671875,4.8828125,143.5546875,-25.87890625,31.25
1644477832981.625,-51.26953125,-1.46484375,-34.66796875,-48.828125,-42.96875
1644477832985.5312,-28.3203125,6.34765625,-133.7890625,-41.50390625,-45.41015625
1644477832989.4375,16.11328125,5.37109375,78.125,-30.76171875,81.54296875
1644477832993.3438,22.4609375,-2.44140625,333.0078125,-21.97265625,125.48828125
1644477832997.25,-5.37109375,-5.859375,218.26171875,-26.3671875,74.70703125
1644477833001.1562,-35.15625,-6.8359375,-308.59375,-42.48046875,129.8828125
1644477833005.0625,-30.76171875,-10.7421875,-704.58984375,-30.2734375,343.75
1644477833008.9688,-14.6484375,-20.01953125,-223.6328125,-13.18359375,346.19140625
1644477833012.875,-2.9296875,-26.3671875,380.859375,-7.8125,148.92578125
1644477833016.7812,-3.41796875,-22.4609375,180.6640625,-12.6953125,63.96484375
1644477833020.6875,-26.3671875,-10.7421875,-455.56640625,-25.87890625,154.78515625
1644477833024.5938,-29.78515625,-7.8125,-235.3515625,-24.4140625,0.9765625
1644477833028.5,8.30078125,-5.859375,286.1328125,-3.41796875,-92.7734375
1644477833032.4062,33.203125,-3.90625,335.44921875,5.859375,24.90234375
1644477833036.3125,6.34765625,-8.7890625,163.0859375,-7.8125,39.0625
1644477833040.2188,-38.0859375,-13.18359375,-72.75390625,-27.83203125,-83.0078125
1644477833044.125,-39.0625,-9.27734375,-183.59375,-29.78515625,-118.65234375
1644477833048.0312,-2.9296875,-9.27734375,-142.08984375,-10.7421875,86.9140625
1644477833051.9375,11.23046875,-16.6015625,11.71875,-4.8828125,204.1015625
1644477833055.8438,0.48828125,-15.13671875,178.7109375,-18.5546875,20.01953125
1644477833059.75,-30.2734375,-10.25390625,56.640625,-33.203125,-91.30859375
1644477833063.6562,-58.59375,-15.625,-477.5390625,-45.41015625,89.84375
1644477833067.5625,-26.85546875,-16.6015625,-473.14453125,-28.80859375,200.1953125
1644477833071.4688,20.5078125,-8.7890625,348.6328125,-3.41796875,-68.359375
1644477833075.375,10.25390625,-10.25390625,358.88671875,-7.8125,-118.65234375
1644477833079.2812,-24.90234375,-15.13671875,-136.71875,-33.69140625,-57.6171875
1644477833083.1875,-42.48046875,-9.27734375,-191.89453125,-43.9453125,-113.28125
1644477833087.0938,-23.4375,-7.8125,97.16796875,-30.2734375,-145.5078125
1644477833091,14.6484375,-7.32421875,337.40234375,-1.953125,-57.6171875
1644477833094.9062,10.7421875,-9.27734375,48.828125,-0.48828125,133.30078125
1644477833098.8125,-32.2265625,-20.99609375,-213.8671875,-29.296875,52.24609375
1644477833102.7188,-67.87109375,-22.4609375,-150.390625,-45.8984375,-145.01953125
1644477833106.625,-39.0625,-17.578125,-52.24609375,-33.203125,-95.703125
1644477833110.5312,17.578125,-17.08984375,-170.41015625,0.9765625,205.078125
1644477833114.4375,6.8359375,-18.06640625,132.32421875,6.8359375,80.078125
1644477833118.3438,-32.2265625,-20.01953125,203.61328125,-21.97265625,-121.58203125
1644477833122.25,-46.38671875,-19.04296875,-319.82421875,-33.203125,-24.4140625
1644477833126.1562,-30.76171875,-20.99609375,-300.78125,-28.3203125,-11.23046875
1644477833130.0625,12.20703125,-16.11328125,345.21484375,-12.6953125,-59.5703125
1644477833133.9688,20.99609375,-13.18359375,435.546875,1.46484375,-132.8125
1644477833137.875,-17.08984375,-17.08984375,-19.53125,-18.5546875,-147.4609375
1644477833141.7812,-47.8515625,-16.6015625,-360.83984375,-38.57421875,-7.32421875
1644477833145.6875,-29.78515625,-16.6015625,-253.41796875,-30.76171875,19.04296875
1644477833149.5938,20.01953125,-10.25390625,282.71484375,-2.44140625,-88.8671875
1644477833153.5,30.2734375,-11.71875,146.484375,11.23046875,33.69140625
1644477833157.4062,-9.27734375,-20.99609375,-347.65625,-17.08984375,213.8671875
1644477833161.3125,-40.52734375,-16.6015625,-122.0703125,-38.0859375,-91.796875
1644477833165.2188,-31.73828125,-12.6953125,-20.01953125,-33.203125,-208.984375
1644477833169.125,0,-13.671875,44.43359375,-17.578125,-78.61328125
1644477833173.0312,7.32421875,-10.25390625,320.80078125,-10.7421875,-96.6796875
1644477833176.9375,-11.23046875,-10.25390625,226.07421875,-10.7421875,-124.51171875
1644477833180.8438,-35.64453125,-15.13671875,-227.5390625,-20.5078125,-20.01953125
1644477833184.75,-44.921875,-16.6015625,-494.140625,-28.3203125,74.21875
1644477833188.6562,-6.34765625,-11.23046875,-84.9609375,-8.7890625,72.265625
1644477833192.5625,25.87890625,-11.71875,276.85546875,7.8125,-6.34765625
1644477833196.4688,5.859375,-17.08984375,101.5625,-11.71875,-62.01171875
1644477833200.375,-35.15625,-20.01953125,-513.18359375,-27.83203125,137.6953125
1644477833204.2812,-50.78125,-20.01953125,-374.0234375,-32.71484375,2.9296875
1644477833208.1875,-4.39453125,-14.16015625,302.734375,-20.5078125,-178.7109375
1644477833212.0938,15.625,-15.625,359.375,-8.30078125,-44.921875
1644477833216,-13.671875,-30.2734375,194.82421875,-9.27734375,-45.8984375
1644477833219.9062,-29.296875,-28.3203125,54.6875,-13.18359375,-149.4140625
1644477833223.8125,-46.38671875,-18.06640625,-121.58203125,-39.55078125,-173.828125
1644477833227.7188,-21.484375,-15.13671875,-36.62109375,-38.57421875,-90.8203125
1644477833231.625,20.01953125,-13.671875,261.71875,-18.5546875,1.953125
1644477833235.5312,12.20703125,-13.18359375,141.11328125,-8.7890625,110.3515625
1644477833239.4375,-9.765625,-9.765625,-118.1640625,-21.484375,47.36328125
1644477833243.3438,-20.99609375,-12.6953125,-459.9609375,-24.4140625,129.8828125
1644477833247.25,0.48828125,-16.11328125,-629.8828125,0,427.734375
1644477833251.1562,36.1328125,-14.16015625,200.68359375,3.90625,172.8515625
1644477833255.0625,35.64453125,-16.11328125,458.0078125,-10.25390625,-29.78515625
1644477833258.9688,0.9765625,-18.5546875,-27.34375,-24.90234375,56.15234375
1644477833262.875,-34.66796875,-17.08984375,-179.19921875,-32.2265625,-56.15234375
1644477833266.7812,-20.99609375,-14.6484375,61.5234375,-24.4140625,-99.12109375
1644477833270.6875,17.578125,-12.20703125,299.8046875,-10.7421875,-0.48828125
1644477833274.5938,24.4140625,-9.27734375,131.8359375,-6.8359375,55.17578125
1644477833278.5,-0.9765625,-6.8359375,-20.5078125,-15.13671875,12.20703125
1644477833282.4062,-27.34375,-8.30078125,-269.04296875,-20.99609375,11.23046875
1644477833286.3125,-13.671875,-5.859375,-304.19921875,-7.8125,69.82421875
1644477833290.2188,9.765625,-10.7421875,-224.609375,18.06640625,318.359375
1644477833294.125,1.46484375,-16.6015625,12.20703125,15.625,258.30078125
1644477833298.0312,-16.6015625,-14.16015625,148.92578125,-3.41796875,41.015625
1644477833301.9375,-43.45703125,-17.08984375,-178.7109375,-20.99609375,-15.13671875
1644477833305.8438,-37.59765625,-23.92578125,-267.08984375,-15.625,62.98828125
1644477833309.75,5.859375,-24.90234375,291.015625,2.9296875,41.9921875
1644477833313.6562,16.6015625,-31.73828125,476.5625,-1.953125,21.484375
1644477833317.5625,-8.7890625,-31.73828125,86.9140625,-17.578125,32.2265625
1644477833321.4688,-34.66796875,-20.01953125,-210.9375,-27.34375,-55.17578125
1644477833325.375,-17.08984375,-10.25390625,-145.5078125,-17.578125,-107.91015625
1644477833329.2812,18.06640625,-8.7890625,147.4609375,6.8359375,6.34765625
1644477833333.1875,26.85546875,-16.11328125,31.73828125,5.859375,281.25
1644477833337.0938,0.48828125,-18.06640625,-336.42578125,-6.34765625,363.28125
1644477833341,-39.55078125,-20.01953125,-108.3984375,-27.83203125,-15.13671875
1644477833344.9062,-38.0859375,-29.296875,-25.390625,-26.3671875,-146.484375
1644477833348.8125,8.30078125,-24.90234375,76.171875,-0.9765625,7.32421875
1644477833352.7188,27.34375,-16.6015625,273.92578125,0.48828125,29.296875
1644477833356.625,-8.30078125,-24.4140625,140.625,-16.6015625,16.11328125
1644477833360.5312,-50.78125,-30.76171875,-113.76953125,-38.0859375,-62.98828125
1644477833364.4375,-59.5703125,-31.25,-471.19140625,-45.41015625,32.71484375
1644477833368.3438,-22.4609375,-30.76171875,-50.78125,-24.4140625,36.1328125
1644477833372.25,10.7421875,-29.296875,448.73046875,-8.30078125,-24.4140625
1644477833376.1562,-9.765625,-32.2265625,111.81640625,-25.390625,110.83984375
1644477833380.0625,-40.52734375,-31.25,-562.01171875,-37.59765625,283.69140625
1644477833383.9688,-41.50390625,-17.08984375,-435.05859375,-38.0859375,78.61328125
1644477833387.875,-9.27734375,-19.53125,202.1484375,-28.3203125,-110.3515625
1644477833391.7812,14.6484375,-33.69140625,343.75,-11.71875,25.87890625
1644477833395.6875,2.9296875,-35.15625,162.59765625,-11.71875,69.3359375
1644477833399.5938,-32.71484375,-27.83203125,37.109375,-22.94921875,-29.78515625
1644477833403.5,-61.03515625,-24.4140625,-129.8828125,-24.4140625,-104.00390625
1644477833407.4062,-34.1796875,-18.5546875,-62.5,-9.765625,-59.5703125
1644477833411.3125,6.8359375,-13.671875,199.70703125,4.39453125,77.1484375
1644477833415.2188,-2.44140625,-17.08984375,168.9453125,0.48828125,111.81640625
1644477833419.125,-35.64453125,-18.5546875,27.34375,-18.5546875,-67.3828125
1644477833423.0312,-53.7109375,-20.5078125,-431.15234375,-37.59765625,40.52734375
1644477833426.9375,-30.76171875,-19.04296875,-718.75,-33.203125,468.26171875
1644477833430.8438,6.8359375,-11.71875,62.01171875,-12.20703125,201.66015625
1644477833434.75,4.39453125,-13.671875,455.078125,-13.18359375,-87.890625
1644477833438.6562,-30.2734375,-26.3671875,-20.01953125,-31.25,2.44140625
1644477833442.5625,-53.22265625,-29.78515625,-246.09375,-31.73828125,-105.95703125
1644477833446.4688,-23.92578125,-19.04296875,21.484375,-9.765625,-146.97265625
1644477833450.375,19.53125,-16.6015625,309.5703125,8.30078125,-22.4609375
1644477833454.2812,10.7421875,-25.390625,199.70703125,-8.30078125,85.9375
1644477833458.1875,-28.3203125,-21.484375,46.875,-26.85546875,40.52734375
1644477833462.0938,-54.19921875,-22.4609375,-95.703125,-31.73828125,-59.5703125
1644477833466,-34.1796875,-26.85546875,-103.515625,-34.1796875,20.99609375
1644477833469.9062,-3.90625,-24.4140625,-26.3671875,-15.13671875,171.875
1644477833473.8125,0,-24.90234375,41.015625,0.9765625,193.84765625
1644477833477.7188,-31.73828125,-33.203125,-59.5703125,-21.97265625,87.890625
1644477833481.625,-66.40625,-39.55078125,-330.078125,-49.31640625,-30.76171875
1644477833485.5312,-50.29296875,-37.59765625,-638.18359375,-32.2265625,212.890625
1644477833489.4375,-7.32421875,-30.76171875,-57.6171875,-12.20703125,230.46875
1644477833493.3438,4.8828125,-33.69140625,519.04296875,-14.6484375,-29.296875
1644477833497.25,-20.99609375,-39.0625,198.2421875,-22.94921875,-64.453125
1644477833501.1562,-57.12890625,-32.2265625,-106.93359375,-29.296875,-66.40625
1644477833505.0625,-54.6875,-25.390625,-76.171875,-17.578125,-121.58203125
1644477833508.9688,-14.16015625,-29.296875,231.4453125,-4.8828125,-78.61328125
1644477833512.875,-4.8828125,-35.64453125,278.3203125,-14.6484375,15.625
1644477833516.7812,-29.78515625,-37.59765625,-41.9921875,-27.83203125,113.28125
1644477833520.6875,-69.82421875,-40.0390625,-289.0625,-37.59765625,114.74609375
1644477833524.5938,-66.89453125,-40.52734375,-112.79296875,-42.96875,-47.36328125
1644477833528.5,-18.5546875,-38.0859375,-28.80859375,-18.06640625,108.3984375
1644477833532.4062,3.41796875,-32.2265625,-313.96484375,4.39453125,457.03125
1644477833536.3125,-13.18359375,-27.83203125,82.51953125,-17.578125,118.1640625
1644477833540.2188,-43.45703125,-26.85546875,118.65234375,-30.76171875,-146.484375
1644477833544.125,-55.17578125,-25.390625,-289.55078125,-24.4140625,-57.12890625
1644477833548.0312,-27.34375,-25.87890625,55.6640625,-9.765625,-49.8046875
1644477833551.9375,-8.30078125,-31.73828125,449.70703125,-3.41796875,-41.9921875
1644477833555.8438,-19.53125,-30.76171875,273.4375,-7.32421875,0.48828125
1644477833559.75,-42.96875,-24.90234375,-166.50390625,-25.87890625,11.71875
1644477833563.6562,-57.6171875,-21.484375,-410.15625,-38.0859375,17.08984375
1644477833567.5625,-19.04296875,-17.578125,-143.5546875,-20.01953125,81.54296875
1644477833571.4688,18.5546875,-18.06640625,202.63671875,-15.625,77.63671875
1644477833575.375,0,-23.4375,-152.83203125,-16.6015625,263.18359375
1644477833579.2812,-41.015625,-16.11328125,-201.171875,-26.3671875,117.67578125
1644477833583.1875,-58.59375,-13.671875,-42.96875,-35.15625,-201.171875
1644477833587.0938,-28.80859375,-19.04296875,-74.70703125,-19.04296875,-145.5078125
1644477833591,7.8125,-15.13671875,185.546875,3.41796875,-18.5546875
1644477833594.9062,1.953125,-19.04296875,361.328125,8.30078125,-97.65625
1644477833598.8125,-25.390625,-24.4140625,132.32421875,-15.625,-180.6640625
1644477833602.7188,-36.62109375,-16.6015625,-271.484375,-28.3203125,-139.6484375
1644477833606.625,-11.71875,-10.25390625,-166.50390625,-17.578125,-76.171875
1644477833610.5312,17.578125,-9.765625,186.03515625,1.46484375,56.15234375
1644477833614.4375,9.27734375,-13.18359375,219.23828125,3.41796875,55.17578125
1644477833618.3438,-22.94921875,-20.01953125,-147.94921875,-15.13671875,25.390625
1644477833622.25,-44.43359375,-15.625,-628.90625,-25.390625,137.6953125
1644477833626.1562,-26.3671875,-13.671875,-74.21875,-22.94921875,-65.91796875
1644477833630.0625,3.90625,-18.06640625,471.6796875,-2.9296875,-94.23828125
1644477833633.9688,3.90625,-19.04296875,261.23046875,3.41796875,20.5078125
1644477833637.875,-18.06640625,-19.53125,109.375,-15.13671875,-98.14453125
1644477833641.7812,-43.45703125,-17.08984375,-48.33984375,-29.78515625,-229.4921875
1644477833645.6875,-34.66796875,-14.6484375,-172.36328125,-38.0859375,-195.80078125
1644477833649.5938,-0.9765625,-11.23046875,-9.765625,-18.06640625,-39.0625
1644477833653.5,8.7890625,-8.7890625,284.66796875,2.9296875,-27.34375
1644477833657.4062,-17.08984375,-16.11328125,83.49609375,-18.5546875,23.4375
1644477833661.3125,-56.15234375,-22.94921875,-347.16796875,-38.0859375,21.97265625
1644477833665.2188,-47.36328125,-25.390625,-673.33984375,-27.83203125,192.3828125
1644477833669.125,0,-20.99609375,-152.34375,-6.34765625,169.921875
1644477833673.0312,17.578125,-11.71875,503.90625,8.30078125,-96.6796875
1644477833676.9375,-14.16015625,-19.04296875,254.39453125,-2.44140625,-99.609375
1644477833680.8438,-54.6875,-25.390625,-109.375,-28.80859375,-50.78125
1644477833684.75,-49.31640625,-21.97265625,-141.6015625,-35.15625,-145.99609375
1644477833688.6562,-11.23046875,-20.01953125,160.64453125,-10.7421875,-182.12890625
1644477833692.5625,12.20703125,-17.578125,276.85546875,6.8359375,-61.03515625
1644477833696.4688,-7.8125,-20.01953125,107.91015625,-7.8125,-59.08203125
1644477833700.375,-59.08203125,-24.90234375,-136.23046875,-28.80859375,-132.32421875
1644477833704.2812,-73.2421875,-29.296875,-330.078125,-41.9921875,-121.58203125
1644477833708.1875,-22.94921875,-26.85546875,-220.703125,-29.78515625,95.703125
1644477833712.0938,-0.48828125,-22.94921875,-310.546875,-16.6015625,375.9765625
1644477833716,-21.484375,-22.4609375,59.08203125,-26.85546875,44.921875
1644477833719.9062,-39.55078125,-21.97265625,126.953125,-28.80859375,-175.29296875
1644477833723.8125,-45.41015625,-24.4140625,-322.265625,-35.15625,-37.59765625
1644477833727.7188,-15.625,-23.4375,-6.8359375,-30.76171875,-64.94140625
1644477833731.625,4.39453125,-21.97265625,414.55078125,-12.20703125,-126.46484375
1644477833735.5312,-18.06640625,-31.25,241.2109375,-18.06640625,-108.88671875
1644477833739.4375,-46.38671875,-28.3203125,-193.84765625,-36.1328125,-51.7578125
1644477833743.3438,-56.640625,-24.4140625,-318.359375,-41.015625,-115.72265625
1644477833747.25,-30.76171875,-22.4609375,-6.34765625,-22.4609375,-155.2734375
1644477833751.1562,0.9765625,-23.92578125,127.9296875,-7.8125,-3.41796875
1644477833755.0625,-3.90625,-26.85546875,-298.33984375,-8.30078125,296.875
1644477833758.9688,-36.1328125,-22.94921875,-263.18359375,-27.34375,166.50390625
1644477833762.875,-56.640625,-25.390625,-84.9609375,-47.8515625,-125
1644477833766.7812,-36.1328125,-30.2734375,-178.22265625,-43.45703125,7.8125
1644477833770.6875,-0.9765625,-31.25,54.6875,-20.5078125,102.05078125
1644477833774.5938,-3.41796875,-25.87890625,317.87109375,-13.18359375,-66.89453125
1644477833778.5,-38.0859375,-25.390625,149.4140625,-25.390625,-155.76171875
1644477833782.4062,-64.94140625,-35.15625,-264.16015625,-42.48046875,-102.5390625
1644477833786.3125,-40.52734375,-35.15625,-163.57421875,-38.57421875,-77.63671875
1644477833790.2188,10.7421875,-28.80859375,321.2890625,-8.7890625,-74.70703125
1644477833794.125,9.765625,-28.80859375,362.3046875,-3.90625,-83.984375
1644477833798.0312,-25.390625,-36.1328125,-190.4296875,-20.5078125,69.3359375
1644477833801.9375,-47.36328125,-32.2265625,-664.55078125,-27.83203125,189.453125
1644477833805.8438,-36.62109375,-23.4375,-174.8046875,-34.1796875,-18.06640625
1644477833809.75,-4.8828125,-22.94921875,377.44140625,-20.01953125,-81.54296875
1644477833813.6562,6.8359375,-27.34375,155.2734375,-10.25390625,65.4296875
1644477833817.5625,-22.94921875,-31.73828125,-42.96875,-21.484375,59.08203125
1644477833821.4688,-52.734375,-29.78515625,-110.3515625,-33.69140625,-75.1953125
1644477833825.375,-37.59765625,-24.90234375,-228.515625,-25.87890625,-17.578125
1644477833829.2812,3.41796875,-20.01953125,-81.54296875,-2.44140625,132.8125
1644477833833.1875,12.20703125,-17.08984375,209.9609375,1.953125,61.03515625
1644477833837.0938,-15.625,-15.13671875,225.5859375,-9.765625,-114.74609375
1644477833841,-43.9453125,-14.16015625,-159.66796875,-19.53125,-109.375
1644477833844.9062,-49.31640625,-14.16015625,-435.05859375,-20.5078125,54.19921875
1644477833848.8125,-16.6015625,-14.16015625,-94.23828125,-7.32421875,114.2578125
1644477833852.7188,8.7890625,-17.578125,342.7734375,9.27734375,3.41796875
1644477833856.625,-8.7890625,-27.34375,194.3359375,1.953125,-5.37109375
1644477833860.5312,-41.9921875,-28.80859375,-536.1328125,-15.13671875,216.796875
1644477833864.4375,-41.9921875,-20.5078125,-340.8203125,-20.01953125,79.58984375
1644477833868.3438,1.953125,-23.4375,273.92578125,-3.41796875,-92.7734375
1644477833872.25,22.4609375,-26.3671875,305.6640625,14.6484375,-11.71875
1644477833876.1562,6.34765625,-20.99609375,162.59765625,7.8125,-12.6953125
1644477833880.0625,-26.3671875,-23.92578125,-105.95703125,-20.01953125,-45.41015625
1644477833883.9688,-39.0625,-26.3671875,-339.35546875,-30.76171875,-23.92578125
1644477833887.875,-11.71875,-20.99609375,-152.34375,-6.34765625,41.50390625
1644477833891.7812,10.25390625,-21.97265625,46.38671875,3.41796875,194.82421875
1644477833895.6875,-13.671875,-35.15625,70.3125,-11.71875,104.4921875
1644477833899.5938,-48.33984375,-38.0859375,22.4609375,-22.4609375,-74.21875
1644477833903.5,-63.4765625,-34.1796875,-393.06640625,-28.80859375,23.4375
1644477833907.4062,-35.15625,-27.83203125,-458.984375,-18.5546875,238.28125
1644477833911.3125,7.8125,-22.4609375,356.93359375,-0.48828125,54.19921875
1644477833915.2188,-0.9765625,-29.78515625,410.15625,-11.71875,-47.36328125
1644477833919.125,-40.52734375,-34.1796875,-122.55859375,-38.0859375,20.5078125
1644477833923.0312,-61.03515625,-32.2265625,-250.48828125,-47.8515625,-80.078125
1644477833926.9375,-21.484375,-26.85546875,3.90625,-25.87890625,-135.25390625
1644477833930.8438,16.11328125,-30.2734375,272.4609375,-5.859375,-66.40625
1644477833934.75,-3.41796875,-37.109375,132.32421875,-10.7421875,6.34765625
1644477833938.6562,-49.31640625,-31.73828125,-231.93359375,-34.1796875,-45.8984375
1644477833942.5625,-71.2890625,-27.34375,-446.2890625,-40.52734375,-89.84375
1644477833946.4688,-48.828125,-27.34375,-301.26953125,-24.90234375,-41.9921875
1644477833950.375,-10.7421875,-26.85546875,-279.296875,-7.8125,249.0234375
1644477833954.2812,-7.8125,-21.484375,-152.34375,-10.25390625,221.6796875
1644477833958.1875,-36.1328125,-20.01953125,142.08984375,-24.90234375,-132.32421875
1644477833962.0938,-56.15234375,-19.04296875,-127.9296875,-34.1796875,-178.7109375
1644477833966,-39.0625,-19.53125,-125.48828125,-38.57421875,-126.953125
1644477833969.9062,-6.34765625,-21.97265625,361.81640625,-23.4375,-94.23828125
1644477833973.8125,2.44140625,-17.578125,422.8515625,-10.7421875,-60.546875
1644477833977.7188,-19.04296875,-12.6953125,33.203125,-21.484375,-48.828125
1644477833981.625,-49.8046875,-9.765625,-258.30078125,-40.52734375,-78.61328125
1644477833985.5312,-35.64453125,-5.37109375,-292.48046875,-33.203125,-51.26953125
1644477833989.4375,-0.48828125,-12.20703125,38.0859375,-13.671875,26.85546875
1644477833993.3438,3.41796875,-28.3203125,66.40625,-11.23046875,152.34375
1644477833997.25,-24.90234375,-33.203125,-432.6171875,-28.3203125,290.52734375
1644477834001.1562,-56.15234375,-24.4140625,-323.2421875,-54.19921875,34.66796875
1644477834005.0625,-44.43359375,-17.578125,-25.390625,-42.48046875,-139.6484375
1644477834008.9688,-5.37109375,-20.01953125,8.30078125,-9.765625,35.15625
1644477834012.875,2.44140625,-21.484375,224.12109375,-2.9296875,60.05859375
1644477834016.7812,-13.18359375,-19.04296875,290.0390625,-20.5078125,-54.6875
1644477834020.6875,-41.50390625,-24.90234375,-99.609375,-36.62109375,-96.19140625
1644477834024.5938,-62.5,-35.15625,-350.09765625,-45.41015625,-90.33203125
1644477834028.5,-33.69140625,-35.64453125,33.69140625,-32.2265625,-104.00390625
1644477834032.4062,-11.23046875,-38.57421875,225.5859375,-22.4609375,41.015625
1644477834036.3125,-30.2734375,-37.59765625,-45.8984375,-30.76171875,146.97265625
1644477834040.2188,-50.29296875,-30.76171875,-588.37890625,-33.69140625,188.4765625
1644477834044.125,-58.59375,-22.4609375,-480.46875,-36.1328125,41.9921875
1644477834048.0312,-41.50390625,-21.484375,197.75390625,-37.109375,-175.78125
1644477834051.9375,-13.671875,-19.53125,400.87890625,-35.64453125,-60.546875
1644477834055.8438,-23.4375,-20.5078125,125.9765625,-36.62109375,62.5
1644477834059.75,-62.5,-29.78515625,-174.8046875,-45.41015625,-46.875
1644477834063.6562,-75.68359375,-33.203125,-145.5078125,-49.31640625,-184.5703125
1644477834067.5625,-44.921875,-30.2734375,-21.97265625,-39.0625,-93.75
1644477834071.4688,-15.625,-26.3671875,137.20703125,-27.83203125,12.6953125
1644477834075.375,-19.53125,-31.25,237.79296875,-31.25,-29.296875
1644477834079.2812,-48.828125,-31.25,-61.03515625,-50.78125,-81.0546875
1644477834083.1875,-68.84765625,-26.3671875,-535.64453125,-49.8046875,-32.71484375
1644477834087.0938,-47.8515625,-31.25,-542.96875,-27.34375,170.41015625
1644477834091,-14.6484375,-32.2265625,284.66796875,-18.06640625,-34.1796875
1644477834094.9062,-12.20703125,-32.71484375,429.19921875,-20.5078125,-155.2734375
1644477834098.8125,-34.66796875,-29.78515625,-65.4296875,-34.1796875,-77.1484375
1644477834102.7188,-51.7578125,-21.97265625,-237.3046875,-44.921875,-162.59765625
1644477834106.625,-16.6015625,-18.5546875,21.484375,-23.92578125,-189.453125
1644477834110.5312,42.48046875,-18.5546875,295.8984375,10.25390625,-123.046875
1644477834114.4375,39.55078125,-25.390625,53.22265625,20.01953125,0.48828125
1644477834118.3438,-5.37109375,-32.2265625,-141.6015625,3.41796875,38.57421875
1644477834122.25,-38.57421875,-31.73828125,-195.3125,-10.7421875,-133.30078125
1644477834126.1562,-23.92578125,-25.87890625,-228.515625,2.44140625,-137.6953125
1644477834130.0625,23.4375,-25.87890625,-302.24609375,28.80859375,314.94140625
1644477834133.9688,31.73828125,-24.4140625,-210.44921875,33.203125,355.95703125
1644477834137.875,2.44140625,-27.34375,152.34375,12.6953125,-92.7734375
1644477834141.7812,-25.390625,-26.3671875,-91.30859375,-8.7890625,-174.31640625
1644477834145.6875,-7.8125,-20.01953125,-175.78125,-7.8125,-99.12109375
1644477834149.5938,42.96875,-19.53125,277.34375,13.671875,-96.19140625
1644477834153.5,54.6875,-23.92578125,380.37109375,21.97265625,-78.61328125
1644477834157.4062,22.4609375,-32.71484375,35.64453125,8.30078125,-77.63671875
1644477834161.3125,-23.92578125,-35.15625,-281.25,-1.953125,-85.44921875
1644477834165.2188,-26.85546875,-30.76171875,-174.8046875,5.37109375,-101.5625
1644477834169.125,10.7421875,-32.71484375,170.41015625,24.90234375,-106.93359375
1644477834173.0312,27.83203125,-31.25,101.5625,32.2265625,36.62109375
1644477834176.9375,3.90625,-25.87890625,-215.8203125,19.04296875,142.578125
1644477834180.8438,-35.64453125,-27.83203125,-361.328125,2.44140625,50.78125
1644477834184.75,-25.87890625,-23.92578125,-176.7578125,1.46484375,-117.67578125
1644477834188.6562,19.04296875,-16.6015625,-74.70703125,21.484375,25.87890625
1644477834192.5625,25.87890625,-23.92578125,-151.85546875,28.3203125,229.4921875
1644477834196.4688,1.46484375,-27.83203125,206.0546875,13.18359375,-47.36328125
1644477834200.375,-28.80859375,-25.87890625,9.27734375,-3.90625,-185.05859375
1644477834204.2812,-30.2734375,-25.87890625,-326.171875,-9.765625,-106.93359375
1644477834208.1875,4.8828125,-24.90234375,72.75390625,5.859375,-92.28515625
1644477834212.0938,32.2265625,-24.90234375,430.17578125,32.2265625,-70.80078125
1644477834216,16.11328125,-29.296875,198.73046875,22.4609375,-36.62109375
1644477834219.9062,-22.94921875,-30.76171875,-370.60546875,1.46484375,77.1484375
1644477834223.8125,-41.9921875,-27.83203125,-504.8828125,-0.9765625,62.01171875
1644477834227.7188,-20.01953125,-29.78515625,18.06640625,4.8828125,-80.56640625
1644477834231.625,18.5546875,-28.3203125,319.82421875,19.53125,-9.765625
1644477834235.5312,10.7421875,-28.80859375,-257.8125,11.23046875,321.2890625
1644477834239.4375,-31.25,-26.85546875,-394.53125,-21.484375,149.90234375
1644477834243.3438,-33.203125,-20.99609375,-103.02734375,-27.34375,-155.76171875
1644477834247.25,2.44140625,-21.97265625,7.32421875,-6.34765625,-77.1484375
1644477834251.1562,24.4140625,-22.94921875,231.93359375,2.9296875,-31.73828125
1644477834255.0625,14.6484375,-20.99609375,292.96875,0.9765625,-109.86328125
1644477834258.9688,-13.18359375,-24.4140625,69.82421875,-16.6015625,-169.921875
1644477834262.875,-39.0625,-25.390625,-297.36328125,-36.62109375,-115.234375
1644477834266.7812,-32.71484375,-25.390625,-281.73828125,-30.76171875,15.13671875
1644477834270.6875,0.9765625,-23.4375,78.61328125,-10.7421875,82.51953125
1644477834274.5938,0,-28.3203125,208.49609375,-9.765625,-15.625
1644477834278.5,-36.1328125,-31.25,-220.703125,-20.01953125,20.5078125
1644477834282.4062,-62.5,-29.296875,-685.546875,-35.64453125,159.66796875
1644477834286.3125,-40.52734375,-28.3203125,-77.63671875,-23.4375,-89.84375
1644477834290.2188,3.90625,-27.83203125,373.046875,2.9296875,-145.99609375
1644477834294.125,10.25390625,-32.2265625,84.47265625,-7.32421875,140.625
1644477834298.0312,-19.53125,-34.1796875,12.20703125,-26.3671875,59.08203125
1644477834301.9375,-49.8046875,-32.2265625,-46.38671875,-41.9921875,-162.109375
1644477834305.8438,-36.62109375,-29.78515625,-91.30859375,-32.71484375,-115.72265625
1644477834309.75,4.8828125,-25.87890625,116.2109375,-6.8359375,-5.37109375
1644477834313.6562,13.18359375,-26.85546875,175.29296875,-0.9765625,11.23046875
1644477834317.5625,-16.6015625,-31.73828125,-32.71484375,-12.6953125,-12.20703125
1644477834321.4688,-47.8515625,-33.69140625,-323.73046875,-26.85546875,-42.48046875
1644477834325.375,-41.50390625,-39.0625,-601.07421875,-20.99609375,177.24609375
1644477834329.2812,-13.18359375,-39.55078125,-26.85546875,-10.25390625,150.390625
1644477834333.1875,-3.41796875,-36.62109375,539.55078125,-10.25390625,-39.55078125
1644477834337.0938,-25.390625,-35.15625,213.8671875,-15.13671875,-13.671875
1644477834341,-57.12890625,-31.25,-166.9921875,-30.76171875,-57.12890625
1644477834344.9062,-50.78125,-28.80859375,-106.93359375,-32.71484375,-90.8203125
1644477834348.8125,-13.671875,-26.85546875,196.77734375,-11.23046875,-37.59765625
1644477834352.7188,4.39453125,-20.5078125,180.6640625,6.34765625,89.84375
1644477834356.625,-18.06640625,-24.90234375,-15.13671875,-1.46484375,139.16015625
1644477834360.5312,-45.41015625,-27.83203125,-245.60546875,-22.94921875,81.54296875
1644477834364.4375,-43.45703125,-21.484375,-319.82421875,-35.64453125,-3.90625
1644477834368.3438,-4.8828125,-14.16015625,-116.69921875,-13.18359375,151.3671875
1644477834372.25,7.8125,-14.16015625,-83.0078125,7.8125,390.13671875
1644477834376.1562,-20.5078125,-24.4140625,243.1640625,-23.4375,134.765625
1644477834380.0625,-33.69140625,-28.80859375,121.58203125,-36.1328125,-53.7109375
1644477834383.9688,-24.4140625,-17.578125,-300.78125,-27.83203125,-9.765625
1644477834387.875,-19.04296875,-17.08984375,-7.32421875,-47.36328125,-31.25
1644477834391.7812,-5.859375,-22.4609375,416.50390625,-46.38671875,-49.31640625
1644477834395.6875,1.953125,-26.85546875,234.86328125,-18.06640625,7.8125
1644477834399.5938,-24.4140625,-35.15625,-235.3515625,-21.97265625,-4.8828125
1644477834403.5,-42.96875,-37.59765625,-318.84765625,-32.71484375,-61.5234375
1644477834407.4062,-16.11328125,-38.0859375,-145.5078125,-10.25390625,-5.859375
1644477834411.3125,16.11328125,-36.1328125,110.3515625,5.37109375,59.5703125
1644477834415.2188,13.18359375,-38.57421875,-271.97265625,4.39453125,442.3828125
1644477834419.125,-19.53125,-35.64453125,-499.51171875,-16.11328125,395.01953125
1644477834423.0312,-39.0625,-29.78515625,-115.72265625,-35.15625,-49.8046875
1644477834426.9375,-11.23046875,-27.83203125,34.1796875,-10.7421875,-32.71484375
1644477834430.8438,20.5078125,-25.87890625,268.06640625,3.90625,46.38671875
1644477834434.75,12.20703125,-24.90234375,358.88671875,-5.859375,-12.6953125
1644477834438.6562,-14.16015625,-20.01953125,125,-19.04296875,-72.75390625
1644477834442.5625,-39.0625,-22.94921875,-264.6484375,-30.76171875,-75.1953125
1644477834446.4688,-26.85546875,-30.2734375,-182.6171875,-28.3203125,-52.734375
1644477834450.375,7.32421875,-28.3203125,284.66796875,-14.16015625,-34.66796875
1644477834454.2812,10.7421875,-26.3671875,232.421875,-6.8359375,4.39453125
1644477834458.1875,-23.4375,-28.80859375,-241.69921875,-22.94921875,197.75390625
1644477834462.0938,-50.29296875,-29.78515625,-684.5703125,-38.0859375,312.5
1644477834466,-28.3203125,-26.3671875,-230.46875,-16.6015625,24.4140625
1644477834469.9062,13.671875,-22.94921875,257.8125,1.46484375,-65.91796875
1644477834473.8125,7.8125,-24.90234375,110.3515625,-7.8125,68.359375
1644477834477.7188,-24.90234375,-25.390625,-49.8046875,-20.01953125,24.4140625
1644477834481.625,-46.875,-23.92578125,-56.640625,-38.57421875,-165.52734375
1644477834485.5312,-39.55078125,-25.87890625,-87.40234375,-31.25,-141.11328125
1644477834489.4375,-0.9765625,-20.5078125,100.09765625,-4.8828125,-17.578125
1644477834493.3438,7.32421875,-19.53125,332.51953125,-3.90625,-9.27734375
1644477834497.25,-24.4140625,-23.92578125,186.5234375,-20.5078125,-97.65625
1644477834501.1562,-57.12890625,-26.85546875,-305.6640625,-36.62109375,-27.34375
1644477834505.0625,-57.12890625,-32.2265625,-667.48046875,-35.64453125,260.7421875
1644477834508.9688,-15.13671875,-29.296875,-60.546875,-28.3203125,125.9765625
1644477834512.875,-0.48828125,-27.83203125,472.65625,-22.94921875,-115.234375
1644477834516.7812,-32.2265625,-29.78515625,136.23046875,-24.90234375,-93.26171875
1644477834520.6875,-63.96484375,-28.80859375,-250.9765625,-39.55078125,-101.5625
1644477834524.5938,-58.59375,-24.4140625,-257.8125,-42.48046875,-119.62890625
1644477834528.5,-16.6015625,-26.3671875,79.1015625,-17.578125,-33.69140625
1644477834532.4062,3.90625,-26.3671875,268.06640625,-5.37109375,14.6484375
1644477834536.3125,-15.625,-25.87890625,6.34765625,-14.6484375,31.73828125
1644477834540.2188,-44.43359375,-28.3203125,-135.25390625,-35.15625,-129.39453125
1644477834544.125,-45.8984375,-24.4140625,-182.12890625,-33.69140625,-215.8203125
1644477834548.0312,-10.25390625,-24.4140625,-161.62109375,-11.71875,-11.71875
1644477834551.9375,14.6484375,-24.90234375,-61.5234375,-0.48828125,184.5703125
1644477834555.8438,6.34765625,-17.08984375,201.171875,-3.90625,5.37109375
1644477834559.75,-36.62109375,-19.04296875,50.78125,-33.203125,-162.109375
1644477834563.6562,-56.15234375,-25.390625,-402.34375,-48.828125,-42.48046875
1644477834567.5625,-20.99609375,-27.34375,-139.6484375,-20.99609375,-21.97265625
1644477834571.4688,5.859375,-26.3671875,363.76953125,1.953125,-159.1796875
1644477834575.375,-13.671875,-29.296875,270.01953125,-4.39453125,-109.375
1644477834579.2812,-40.52734375,-32.71484375,-142.578125,-32.71484375,-34.66796875
1644477834583.1875,-50.78125,-29.296875,-366.2109375,-42.96875,-71.77734375
1644477834587.0938,-34.66796875,-35.64453125,-113.28125,-35.15625,-16.6015625
1644477834591,-1.46484375,-37.109375,291.9921875,-21.484375,20.01953125
1644477834594.9062,-9.27734375,-33.203125,-192.3828125,-15.625,266.11328125
1644477834598.8125,-61.03515625,-28.80859375,-490.234375,-35.64453125,214.84375
1644477834602.7188,-82.51953125,-26.3671875,-189.94140625,-50.78125,-158.69140625
1644477834606.625,-37.109375,-21.97265625,-53.22265625,-32.2265625,-125.48828125
1644477834610.5312,2.9296875,-22.94921875,64.453125,-11.71875,91.796875
1644477834614.4375,-7.8125,-27.83203125,292.48046875,-18.06640625,-0.48828125
1644477834618.3438,-36.62109375,-32.2265625,159.1796875,-37.59765625,-109.375
1644477834622.25,-62.98828125,-33.69140625,-271.97265625,-47.8515625,-90.8203125
1644477834626.1562,-54.19921875,-31.73828125,-191.40625,-39.0625,-47.8515625
1644477834630.0625,-18.06640625,-31.73828125,281.25,-21.484375,-46.875
1644477834633.9688,-14.6484375,-31.73828125,334.9609375,-14.6484375,-82.51953125
1644477834637.875,-37.59765625,-39.55078125,-8.7890625,-32.71484375,30.2734375
1644477834641.7812,-71.77734375,-40.52734375,-411.62109375,-56.15234375,122.0703125
1644477834645.6875,-52.734375,-38.0859375,-354.4921875,-45.41015625,52.24609375
1644477834649.5938,-4.8828125,-36.1328125,113.28125,-20.99609375,40.52734375
1644477834653.5,-1.46484375,-32.71484375,93.26171875,-21.484375,167.96875
1644477834657.4062,-29.296875,-38.0859375,-494.62890625,-34.1796875,377.9296875
1644477834661.3125,-67.87109375,-38.0859375,-300.78125,-55.17578125,60.05859375
1644477834665.2188,-56.15234375,-39.55078125,71.2890625,-51.7578125,-139.16015625
1644477834669.125,-9.765625,-38.57421875,158.69140625,-31.25,20.99609375
1644477834673.0312,-4.39453125,-26.85546875,352.5390625,-22.4609375,-24.90234375
1644477834676.9375,-16.6015625,-17.08984375,245.1171875,-16.11328125,-124.51171875
1644477834680.8438,-37.59765625,-21.97265625,-159.66796875,-27.83203125,-125.9765625
1644477834684.75,-50.29296875,-25.87890625,-336.9140625,-41.50390625,-81.0546875
1644477834688.6562,-25.87890625,-26.85546875,-64.453125,-34.1796875,-47.8515625
1644477834692.5625,-7.8125,-30.76171875,147.4609375,-27.83203125,56.640625
1644477834696.4688,-23.92578125,-29.296875,50.29296875,-26.85546875,71.77734375
1644477834700.375,-53.22265625,-32.71484375,-585.9375,-34.66796875,242.67578125
1644477834704.2812,-62.01171875,-39.55078125,-551.7578125,-47.36328125,204.58984375
1644477834708.1875,-21.484375,-34.1796875,281.25,-22.4609375,-112.79296875
1644477834712.0938,6.34765625,-25.390625,434.08203125,2.44140625,-85.9375
1644477834716,-22.4609375,-25.87890625,205.56640625,-16.6015625,4.39453125
1644477834719.9062,-62.98828125,-38.0859375,19.53125,-37.59765625,-85.9375
1644477834723.8125,-66.40625,-43.45703125,-159.66796875,-39.55078125,-194.3359375
1644477834727.7188,-32.71484375,-37.109375,19.04296875,-26.85546875,-75.1953125
1644477834731.625,-13.671875,-33.203125,290.52734375,-6.34765625,22.94921875
1644477834735.5312,-26.3671875,-29.296875,113.76953125,-1.46484375,116.2109375
1644477834739.4375,-55.6640625,-32.71484375,-169.43359375,-27.34375,65.91796875
1644477834743.3438,-71.2890625,-33.203125,-470.703125,-41.50390625,30.2734375
1644477834747.25,-30.2734375,-28.80859375,-475.5859375,-23.92578125,229.98046875
1644477834751.1562,4.8828125,-25.390625,311.5234375,-6.34765625,36.62109375
1644477834755.0625,-7.32421875,-22.94921875,436.03515625,-7.32421875,-125
1644477834758.9688,-28.3203125,-19.04296875,-143.5546875,-12.6953125,-8.30078125
1644477834762.875,-47.36328125,-21.484375,-381.8359375,-33.69140625,6.8359375
1644477834766.7812,-33.69140625,-25.87890625,-12.20703125,-39.55078125,-158.203125
1644477834770.6875,0,-25.390625,332.03125,-13.18359375,-96.19140625
1644477834774.5938,-0.9765625,-27.83203125,46.875,-2.44140625,146.484375
1644477834778.5,-30.76171875,-31.25,-117.67578125,-23.4375,1.953125
1644477834782.4062,-58.59375,-31.25,-227.05078125,-48.33984375,-134.27734375
1644477834786.3125,-47.8515625,-22.4609375,-268.5546875,-28.80859375,-6.8359375
1644477834790.2188,-10.7421875,-23.92578125,-185.546875,0.9765625,263.671875
1644477834794.125,-9.765625,-28.80859375,123.53515625,-3.90625,211.9140625
1644477834798.0312,-36.1328125,-26.85546875,272.4609375,-34.1796875,-47.8515625
1644477834801.9375,-57.6171875,-29.296875,-135.7421875,-41.9921875,-127.9296875
1644477834805.8438,-42.48046875,-25.87890625,-156.73828125,-29.296875,-104.98046875
1644477834809.75,-8.30078125,-26.3671875,309.5703125,-13.671875,-95.703125
1644477834813.6562,4.8828125,-24.4140625,392.578125,-3.90625,-142.08984375
1644477834817.5625,-9.765625,-19.04296875,-18.06640625,-9.765625,-52.734375
1644477834821.4688,-37.59765625,-16.11328125,-318.359375,-32.71484375,65.91796875
1644477834825.375,-34.1796875,-14.16015625,-162.109375,-41.015625,-60.546875
1644477834829.2812,0.9765625,-15.13671875,117.67578125,-16.6015625,-38.0859375
1644477834833.1875,6.8359375,-16.6015625,54.19921875,-3.90625,233.88671875
1644477834837.0938,-34.66796875,-23.92578125,-503.41796875,-23.92578125,437.5
1644477834841,-79.58984375,-27.34375,-352.05078125,-52.734375,66.89453125
1644477834844.9062,-70.3125,-26.3671875,34.66796875,-52.24609375,-178.22265625
1644477834848.8125,-28.80859375,-32.71484375,171.38671875,-32.71484375,3.90625
1644477834852.7188,-17.08984375,-35.64453125,387.6953125,-21.484375,27.83203125
1644477834856.625,-29.78515625,-30.76171875,264.16015625,-26.85546875,-78.125
1644477834860.5312,-49.31640625,-25.87890625,-96.6796875,-35.64453125,-82.51953125
1644477834864.4375,-41.9921875,-22.4609375,-322.265625,-32.71484375,11.23046875
1644477834868.3438,-5.859375,-19.53125,89.84375,-5.859375,28.3203125
1644477834872.25,12.20703125,-21.484375,405.76171875,5.37109375,19.53125
1644477834876.1562,-8.7890625,-26.85546875,22.4609375,-8.7890625,65.91796875
1644477834880.0625,-43.45703125,-30.76171875,-618.65234375,-21.97265625,370.1171875
1644477834883.9688,-54.19921875,-24.4140625,-588.8671875,-31.25,279.78515625
1644477834887.875,-22.94921875,-19.04296875,107.91015625,-18.06640625,-123.53515625
1644477834891.7812,6.8359375,-17.08984375,331.0546875,3.90625,-41.015625
1644477834895.6875,-0.48828125,-13.671875,-159.1796875,3.90625,182.12890625
1644477834899.5938,-33.203125,-15.625,-191.89453125,-21.484375,22.94921875
1644477834903.5,-48.828125,-19.53125,-78.61328125,-32.2265625,-154.296875
1644477834907.4062,-7.8125,-15.625,12.6953125,-4.39453125,-81.0546875
1644477834911.3125,21.484375,-20.01953125,302.24609375,12.20703125,15.625
1644477834915.2188,-0.9765625,-24.90234375,316.89453125,-1.46484375,5.859375
1644477834919.125,-29.78515625,-19.04296875,78.61328125,-20.5078125,-54.19921875
1644477834923.0312,-44.43359375,-20.99609375,-399.90234375,-30.76171875,37.109375
1644477834926.9375,-18.06640625,-21.97265625,-368.1640625,-14.6484375,168.9453125
1644477834930.8438,10.7421875,-18.5546875,243.65234375,-3.41796875,34.1796875
1644477834934.75,-0.48828125,-20.01953125,354.98046875,-7.8125,-14.6484375
1644477834938.6562,-24.90234375,-23.92578125,-241.2109375,-7.8125,228.515625
1644477834942.5625,-46.875,-20.5078125,-692.3828125,-17.578125,275.87890625
1644477834946.4688,-29.296875,-11.23046875,-42.48046875,-19.04296875,0.9765625
1644477834950.375,4.39453125,-7.32421875,429.6875,4.39453125,-40.0390625
1644477834954.2812,9.765625,-5.859375,183.59375,17.578125,85.44921875
1644477834958.1875,-12.20703125,-7.8125,6.8359375,-8.7890625,26.85546875
1644477834962.0938,-37.109375,-11.71875,-145.99609375,-21.484375,-102.05078125
1644477834966,-20.99609375,-18.5546875,-164.0625,-14.6484375,-63.96484375
1644477834969.9062,11.71875,-17.08984375,-49.31640625,-7.32421875,181.640625
1644477834973.8125,19.53125,-9.27734375,58.10546875,-2.44140625,191.89453125
1644477834977.7188,-17.08984375,-16.6015625,127.44140625,-24.90234375,5.859375
1644477834981.625,-62.01171875,-21.484375,-196.77734375,-53.22265625,-57.6171875
1644477834985.5312,-45.41015625,-16.6015625,-619.62890625,-42.48046875,179.6875
1644477834989.4375,-12.6953125,-14.16015625,22.94921875,-31.25,95.21484375
1644477834993.3438,-10.25390625,-19.53125,432.6171875,-35.15625,-35.15625
1644477834997.25,-25.390625,-17.578125,-30.76171875,-34.1796875,60.05859375
1644477835001.1562,-47.36328125,-20.01953125,-357.91015625,-42.48046875,56.15234375
1644477835005.0625,-49.31640625,-24.90234375,-122.0703125,-48.33984375,-36.1328125
1644477835008.9688,-15.625,-22.94921875,287.59765625,-20.5078125,-39.55078125
1644477835012.875,-1.953125,-28.3203125,265.13671875,-3.90625,76.171875
1644477835016.7812,-25.390625,-27.83203125,-51.7578125,-17.578125,146.484375
1644477835020.6875,-48.33984375,-23.4375,-332.51953125,-35.15625,68.359375
1644477835024.5938,-52.734375,-21.484375,-176.7578125,-26.3671875,-69.82421875
1644477835028.5,-17.578125,-22.4609375,-31.73828125,2.44140625,124.0234375
1644477835032.4062,0,-24.4140625,-172.8515625,12.6953125,367.1875
1644477835036.3125,-20.01953125,-21.97265625,156.73828125,-0.9765625,83.984375
1644477835040.2188,-49.8046875,-28.3203125,47.36328125,-20.99609375,-49.31640625
1644477835044.125,-46.875,-28.3203125,-338.8671875,-21.484375,13.671875
1644477835048.0312,-10.25390625,-29.296875,70.3125,-8.7890625,15.625
1644477835051.9375,2.9296875,-38.0859375,399.90234375,3.41796875,18.06640625
1644477835055.8438,-19.04296875,-40.52734375,97.16796875,-2.44140625,82.51953125
1644477835059.75,-41.50390625,-32.71484375,-363.28125,-20.99609375,237.3046875
1644477835063.6562,-42.96875,-25.390625,-432.12890625,-29.296875,224.609375
1644477835067.5625,-7.32421875,-22.4609375,-29.78515625,-10.25390625,138.671875
1644477835071.4688,24.4140625,-20.99609375,253.90625,12.6953125,171.38671875
1644477835075.375,8.30078125,-25.390625,-137.20703125,1.953125,361.81640625
1644477835079.2812,-32.2265625,-25.390625,-224.12109375,-25.390625,203.125
1644477835083.1875,-50.78125,-27.34375,-15.625,-41.50390625,-63.4765625
1644477835087.0938,-18.5546875,-31.25,50.78125,-28.3203125,-16.6015625
1644477835091,10.7421875,-29.78515625,281.25,-11.71875,20.5078125
1644477835094.9062,-2.9296875,-27.83203125,370.60546875,-6.8359375,8.7890625
1644477835098.8125,-31.73828125,-26.85546875,114.2578125,-23.4375,-44.921875
1644477835102.7188,-50.29296875,-26.3671875,-263.18359375,-38.57421875,-51.7578125
1644477835106.625,-32.71484375,-21.484375,-166.50390625,-21.484375,-52.24609375
1644477835110.5312,1.46484375,-17.08984375,145.99609375,-1.46484375,-7.32421875
1644477835114.4375,-14.16015625,-18.5546875,205.56640625,-15.625,32.71484375
1644477835118.3438,-47.36328125,-19.04296875,-185.546875,-32.2265625,178.22265625
1644477835122.25,-71.77734375,-24.4140625,-861.81640625,-41.9921875,414.55078125
1644477835126.1562,-54.6875,-21.97265625,-273.4375,-39.0625,96.19140625
1644477835130.0625,-7.32421875,-20.01953125,484.375,-20.01953125,-47.36328125
1644477835133.9688,-9.765625,-26.3671875,294.43359375,-14.6484375,50.78125
1644477835137.875,-43.45703125,-25.390625,102.5390625,-27.83203125,-57.6171875
1644477835141.7812,-65.4296875,-22.4609375,-36.1328125,-48.33984375,-145.01953125
1644477835145.6875,-50.29296875,-24.90234375,-81.54296875,-50.78125,-120.60546875
1644477835149.5938,-18.06640625,-31.25,139.16015625,-23.92578125,42.96875
1644477835153.5,-17.578125,-32.71484375,301.7578125,-17.08984375,9.765625
1644477835157.4062,-42.48046875,-30.76171875,36.1328125,-37.59765625,-3.41796875
1644477835161.3125,-69.3359375,-32.71484375,-344.23828125,-54.19921875,77.63671875
1644477835165.2188,-52.734375,-36.1328125,-590.33203125,-43.9453125,242.1875
1644477835169.125,-7.8125,-33.69140625,-107.421875,-15.13671875,268.06640625
1644477835173.0312,7.32421875,-32.71484375,458.0078125,-4.8828125,135.25390625
1644477835176.9375,-21.97265625,-34.66796875,215.33203125,-23.92578125,58.59375
1644477835180.8438,-63.4765625,-35.64453125,-288.57421875,-38.57421875,75.1953125
1644477835184.75,-63.96484375,-33.203125,-104.00390625,-39.55078125,-13.18359375
1644477835188.6562,-20.5078125,-27.83203125,319.3359375,-14.16015625,-27.83203125
1644477835192.5625,-2.9296875,-28.3203125,357.421875,8.30078125,93.75
1644477835196.4688,-29.78515625,-34.1796875,158.203125,-10.7421875,58.10546875
1644477835200.375,-58.59375,-33.69140625,-92.7734375,-30.76171875,-23.4375
1644477835204.2812,-60.05859375,-34.1796875,-273.92578125,-36.1328125,76.66015625
1644477835208.1875,-27.34375,-44.921875,-203.61328125,-15.625,248.53515625
1644477835212.0938,-4.39453125,-41.50390625,-185.546875,8.30078125,385.25390625
1644477835216,-21.484375,-33.203125,160.64453125,-18.5546875,114.74609375
1644477835219.9062,-50.78125,-34.1796875,65.4296875,-45.41015625,-96.19140625
1644477835223.8125,-55.17578125,-35.15625,-284.1796875,-41.50390625,15.625
1644477835227.7188,-21.484375,-34.1796875,-5.37109375,-28.3203125,73.2421875
1644477835231.625,1.46484375,-24.4140625,320.80078125,-14.16015625,32.2265625
1644477835235.5312,-13.18359375,-30.2734375,240.72265625,-23.4375,-33.69140625
1644477835239.4375,-42.96875,-38.57421875,-316.40625,-41.50390625,69.82421875
1644477835243.3438,-53.7109375,-31.73828125,-406.25,-43.45703125,20.5078125
1644477835247.25,-20.5078125,-30.76171875,53.22265625,-28.80859375,-108.3984375
1644477835251.1562,11.71875,-29.78515625,198.73046875,-10.7421875,25.87890625
1644477835255.0625,3.41796875,-24.90234375,-257.32421875,-3.41796875,304.19921875
1644477835258.9688,-44.43359375,-25.390625,-295.8984375,-27.83203125,179.6875
1644477835262.875,-69.82421875,-28.3203125,-65.4296875,-50.29296875,-142.08984375
1644477835266.7812,-29.78515625,-21.484375,-3.90625,-28.80859375,-109.86328125
1644477835270.6875,3.90625,-15.13671875,255.37109375,-7.32421875,-18.06640625
1644477835274.5938,-3.90625,-15.625,355.46875,-7.32421875,-41.50390625
1644477835278.5,-36.62109375,-23.92578125,94.7265625,-27.83203125,-88.37890625
1644477835282.4062,-62.01171875,-23.4375,-259.765625,-41.9921875,-103.02734375
1644477835286.3125,-43.9453125,-19.04296875,-249.51171875,-30.76171875,-15.625
1644477835290.2188,-13.671875,-22.94921875,166.015625,-20.5078125,82.03125
1644477835294.125,-14.6484375,-24.4140625,341.30859375,-17.578125,-33.203125
1644477835298.0312,-36.62109375,-18.5546875,-154.296875,-17.08984375,61.5234375
1644477835301.9375,-57.6171875,-12.6953125,-866.69921875,-23.92578125,352.5390625
1644477835305.8438,-44.43359375,-9.765625,-311.03515625,-25.87890625,112.79296875
1644477835309.75,2.9296875,-19.04296875,423.828125,-5.859375,-94.23828125
1644477835313.6562,8.7890625,-22.94921875,204.1015625,2.9296875,-19.04296875
1644477835317.5625,-23.92578125,-18.06640625,12.6953125,-18.5546875,-34.1796875
1644477835321.4688,-41.015625,-19.53125,-138.671875,-34.1796875,-83.984375
1644477835325.375,-26.3671875,-21.97265625,-125,-26.85546875,-101.07421875
1644477835329.2812,8.7890625,-22.94921875,117.1875,-7.8125,-13.671875
1644477835333.1875,15.625,-15.13671875,338.8671875,0.9765625,16.6015625
1644477835337.0938,-9.27734375,-11.71875,252.9296875,-16.11328125,-63.4765625
1644477835341,-41.50390625,-19.04296875,-176.26953125,-32.71484375,-98.6328125
1644477835344.9062,-42.48046875,-20.01953125,-404.296875,-22.4609375,41.015625
1644477835348.8125,-8.7890625,-17.08984375,-39.55078125,-9.27734375,62.5
1644477835352.7188,4.8828125,-23.4375,231.4453125,-2.9296875,41.50390625
1644477835356.625,-19.04296875,-35.15625,74.70703125,-9.27734375,68.84765625
1644477835360.5312,-52.24609375,-36.62109375,-590.8203125,-24.90234375,230.46875
1644477835364.4375,-61.03515625,-31.25,-539.55078125,-32.71484375,114.74609375
1644477835368.3438,-16.6015625,-28.80859375,286.1328125,-16.11328125,-112.79296875
1644477835372.25,24.90234375,-20.99609375,414.0625,0.48828125,-72.265625
1644477835376.1562,3.41796875,-22.4609375,197.75390625,-16.11328125,-38.57421875
1644477835380.0625,-30.2734375,-24.4140625,-18.06640625,-35.15625,-131.34765625
1644477835383.9688,-34.1796875,-20.5078125,-155.2734375,-34.1796875,-192.87109375
1644477835387.875,-8.30078125,-20.01953125,21.97265625,-16.6015625,-55.6640625
1644477835391.7812,5.37109375,-22.4609375,142.08984375,-8.7890625,93.75
1644477835395.6875,-7.32421875,-24.90234375,56.15234375,-15.13671875,79.1015625
1644477835399.5938,-33.203125,-24.90234375,-26.85546875,-26.85546875,-107.421875
1644477835403.5,-42.96875,-29.78515625,-383.30078125,-35.15625,-52.734375
1644477835407.4062,-6.8359375,-29.296875,-584.47265625,-12.20703125,368.65234375
1644477835411.3125,13.18359375,-20.5078125,189.453125,0.48828125,115.234375
1644477835415.2188,-0.48828125,-20.01953125,437.5,-9.27734375,-171.875
1644477835419.125,-29.296875,-20.01953125,-94.7265625,-14.16015625,-111.81640625
1644477835423.0312,-53.7109375,-25.87890625,-238.76953125,-31.73828125,-171.875
1644477835426.9375,-28.3203125,-31.25,94.7265625,-28.3203125,-198.73046875
1644477835430.8438,14.6484375,-21.97265625,357.421875,-3.90625,-99.12109375
1644477835434.75,9.27734375,-25.87890625,151.3671875,-5.37109375,-1.46484375
1644477835438.6562,-15.13671875,-37.109375,-180.17578125,-20.01953125,14.16015625
1644477835442.5625,-32.71484375,-21.484375,-332.03125,-28.3203125,12.6953125
1644477835446.4688,-36.1328125,-6.34765625,-162.109375,-35.15625,-11.23046875
1644477835450.375,9.27734375,-10.25390625,-152.34375,-11.23046875,226.5625
1644477835454.2812,28.3203125,-12.6953125,54.6875,4.8828125,154.78515625
1644477835458.1875,-22.94921875,-17.08984375,210.9375,-12.20703125,-125
1644477835462.0938,-70.80078125,-26.3671875,-223.14453125,-35.15625,-101.5625
1644477835466,-56.15234375,-26.3671875,-227.5390625,-24.90234375,-31.73828125
1644477835469.9062,-6.8359375,-19.53125,330.078125,1.953125,-58.59375
1644477835473.8125,5.859375,-19.04296875,434.08203125,2.9296875,-51.26953125
1644477835477.7188,-22.4609375,-22.4609375,-0.48828125,-8.7890625,-26.3671875
1644477835481.625,-44.921875,-25.87890625,-342.28515625,-20.99609375,-81.0546875
1644477835485.5312,-32.2265625,-28.80859375,-278.80859375,-5.37109375,-19.04296875
1644477835489.4375,3.90625,-28.3203125,129.8828125,20.5078125,48.33984375
1644477835493.3438,18.06640625,-25.87890625,130.859375,22.4609375,108.88671875
1644477835497.25,-3.41796875,-26.3671875,-333.0078125,4.39453125,282.71484375
1644477835501.1562,-36.62109375,-32.71484375,-168.45703125,-22.4609375,25.87890625
1644477835505.0625,-31.25,-34.66796875,26.3671875,-21.97265625,-135.25390625
1644477835508.9688,1.46484375,-35.64453125,129.39453125,-10.25390625,18.5546875
1644477835512.875,11.23046875,-32.2265625,344.7265625,-10.25390625,26.85546875
1644477835516.7812,-15.13671875,-25.87890625,243.1640625,-25.390625,-104.98046875
1644477835520.6875,-46.38671875,-33.69140625,-210.9375,-36.62109375,-91.30859375
1644477835524.5938,-39.55078125,-30.76171875,-507.8125,-31.25,130.37109375
1644477835528.5,-3.90625,-20.99609375,32.71484375,-14.16015625,103.515625
1644477835532.4062,15.625,-20.5078125,335.44921875,1.46484375,81.54296875
1644477835536.3125,-4.39453125,-20.99609375,38.0859375,-14.6484375,219.7265625
1644477835540.2188,-45.8984375,-23.4375,-564.453125,-32.2265625,354.4921875
1644477835544.125,-61.5234375,-23.92578125,-437.5,-38.0859375,161.62109375
